4/12/2023 10:51:51 am
Time(s)	Displacement(mm)	Force(N)
0.0000	49.8480	1.3167
0.1416	49.3290	1.3304
0.2425	48.6460	1.3320
0.3425	47.9630	1.3316
0.4424	47.3130	1.3311
0.5427	46.6290	1.3317
0.6428	45.9800	1.3305
0.7428	45.2960	1.3290
0.8419	44.6470	1.3336
0.9423	43.9630	1.3275
1.0422	43.3140	1.3278
1.1427	42.6300	1.3301
1.2423	41.9810	1.3307
1.3433	41.2970	1.3351
1.4433	40.6480	1.3377
1.5433	39.9640	1.3317
1.6440	39.2810	1.3355
1.7442	38.6310	1.3292
1.8451	37.9480	1.3323
1.9457	37.2980	1.3302
2.0454	36.6150	1.3347
2.1459	35.9650	1.3321
2.2455	35.2790	1.3288
2.3461	34.6300	1.3283
2.4465	33.9460	1.3326
2.5468	33.2970	1.3334
2.6470	32.6130	1.3338
2.7481	31.9300	1.3260
2.8480	31.2800	1.3320
2.9480	30.5960	1.3333
3.0485	29.9470	1.3348
3.1489	29.2630	1.3320
3.2488	28.6140	1.3323
3.3481	27.9310	1.3309
3.4485	27.2810	1.3300
3.5490	26.5970	1.3325
3.6493	25.9480	1.3336
3.7497	25.2620	1.3291
3.8493	24.5790	1.3336
3.9493	23.9290	1.3309
4.0493	23.2800	1.3278
4.1491	22.5960	1.3329
4.2493	21.9470	1.3335
4.3493	21.2630	1.3315
4.4493	20.5790	1.3323
4.5491	19.9300	1.3346
4.6499	19.2810	1.3341
4.7493	18.5950	1.3314
4.8493	17.9450	1.3324
4.9492	17.2610	1.3323
5.0493	16.6120	1.3304
5.1493	15.9290	1.3334
5.2493	15.2790	1.3320
5.3491	14.5960	1.3287
5.4493	13.9460	1.3314
5.5493	13.2600	1.3310
5.6493	12.6110	1.3305
5.7493	11.9270	1.3324
5.8494	11.2770	1.3291
5.9493	10.5940	1.3310
6.0498	9.9440	1.3310
6.1493	9.2610	1.3319
6.2492	8.6120	1.3297
6.3493	7.9280	1.3339
6.4493	7.2790	1.3307
6.5493	6.5950	1.3293
6.6494	5.9460	1.3290
6.7493	5.2620	1.3313
6.8510	4.5780	1.3294
6.9502	3.9290	1.3336
7.0513	3.2450	1.3312
7.1513	2.5960	1.3343
7.2515	1.9120	1.3324
7.3513	1.2630	1.3326
7.4513	0.5790	1.3321
7.5513	-0.1030	1.3331
7.6516	-0.7530	1.3316
7.7512	-1.4020	1.3330
7.8516	-2.0860	1.3294
7.9513	-2.7350	1.3322
8.0517	-3.4190	1.3291
8.1517	-4.0680	1.3329
8.2518	-4.7520	1.3285
8.3525	-5.4360	1.3314
8.4528	-6.0850	1.3333
8.5530	-6.7340	1.3356
8.6531	-7.4200	1.3312
8.7535	-8.1040	1.3294
8.8538	-8.7530	1.3348
8.9533	-9.4370	1.3311
9.0538	-10.0860	1.3378
9.1535	-10.7700	1.3327
9.2546	-11.4190	1.3368
9.3557	-12.1030	1.3296
9.4567	-12.7860	1.3312
9.5569	-13.4360	1.3326
9.6570	-14.1190	1.3316
9.7571	-14.8030	1.3318
9.8579	-15.4520	1.3318
9.9577	-16.1360	1.3286
10.0574	-16.7860	1.3288
10.1574	-17.4690	1.3318
10.2579	-18.1180	1.3301
10.3581	-18.8020	1.3291
10.4592	-19.4510	1.3343
10.5594	-20.1370	1.3318
10.6594	-20.7870	1.3275
10.7592	-21.4710	1.3330
10.8594	-22.1200	1.3321
10.9600	-22.8040	1.3314
11.0594	-23.4530	1.3346
11.1593	-24.1370	1.3325
11.2594	-24.7860	1.3261
11.3594	-25.4720	1.3279
11.4594	-26.1210	1.3359
11.5594	-26.8050	1.3303
11.6601	-27.4890	1.3323
11.7602	-28.1380	1.3293
11.8602	-28.8220	1.3330
11.9611	-29.4710	1.3315
12.0615	-30.1570	1.3318
12.1618	-30.8060	1.3292
12.2621	-31.4900	1.3299
12.3623	-32.1730	1.3329
12.4627	-32.8230	1.3317
12.5631	-33.4730	1.3275
12.6622	-34.1560	1.3300
12.7633	-34.8400	1.3331
12.8650	-35.4890	1.3333
12.9649	-36.1730	1.3310
13.0647	-36.8560	1.3287
13.1651	-37.5060	1.3315
13.2651	-38.1550	1.3319
13.3649	-38.8380	1.3340
13.4645	-39.5230	1.3375
13.5646	-40.1720	1.3278
13.6647	-40.8210	1.3339
13.7649	-41.5050	1.3314
13.8643	-42.1540	1.3308
13.9651	-42.8380	1.3325
14.0649	-43.4870	1.3312
14.1647	-44.1730	1.3327
14.2648	-44.8570	1.3294
14.3652	-45.5060	1.3318
14.4659	-46.1900	1.3300
14.5658	-46.8390	1.3339
14.6656	-47.5230	1.3312
14.7657	-48.1720	1.3304
14.8659	-48.8560	1.3328
14.9660	-49.5050	1.3315
15.0668	-50.1890	1.3306
15.1666	-50.8380	1.3353
15.2663	-51.5220	1.3299
15.3668	-52.1710	1.3329
15.4664	-52.8550	1.3293
15.5666	-53.5040	1.3286
15.6667	-54.1900	1.3285
15.7666	-54.8390	1.3328
15.8668	-55.5230	1.3298
15.9669	-56.2070	1.3308
16.0671	-56.8560	1.3314
16.1662	-57.5060	1.3314
16.2671	-58.1890	1.3271
16.3672	-58.8390	1.3302
16.4682	-59.5220	1.3306
16.5679	-60.2060	1.3284
16.6678	-60.8550	1.3317
16.7680	-61.5390	1.3308
16.8681	-62.1880	1.3338
16.9680	-62.8720	1.3327
17.0680	-63.5210	1.3325
17.1682	-64.2050	1.3316
17.2690	-64.8540	1.3325
17.3691	-65.5380	1.3332
17.4691	-66.1870	1.3310
17.5689	-66.8710	1.3324
17.6690	-67.5200	1.3301
17.7690	-68.2040	1.3336
17.8691	-68.8530	1.3334
17.9689	-69.5370	1.3315
18.0691	-70.1860	1.3334
18.1692	-70.8700	1.3329
18.2689	-71.5530	1.3338
18.3692	-72.2030	1.3317
18.4682	-72.8520	1.3294
18.5691	-73.5360	1.3315
18.6692	-74.1850	1.3318
18.7683	-74.8690	1.3296
18.8692	-75.5180	1.3354
18.9696	-76.2020	1.3340
19.0695	-76.8850	1.3316
19.1702	-77.5350	1.3332
19.2695	-78.2190	1.3332
19.3692	-78.8680	1.3313
19.4695	-79.5520	1.3341
19.5695	-80.2010	1.3313
19.6696	-80.8850	1.3324
19.7696	-81.5340	1.3280
19.8695	-82.2180	1.3309
19.9711	-82.8670	1.3348
20.0703	-83.5510	1.3336
20.1711	-84.2000	1.3303
20.2714	-84.8840	1.3315
20.3715	-85.5330	1.3309
20.4722	-86.2170	1.3327
20.5719	-86.8660	1.3291
20.6717	-87.5500	1.3337
20.7717	-88.2330	1.3306
20.8716	-88.8830	1.3313
20.9720	-89.5660	1.3357
21.0718	-90.2160	1.3357
21.1717	-90.8990	1.3286
21.2718	-91.5490	1.3387
21.3720	-92.1980	1.3322
21.4718	-92.8820	1.3342
21.5715	-93.5310	1.3360
21.6719	-94.2170	1.3309
21.7720	-94.8670	1.3300
21.8720	-95.5500	1.3324
21.9719	-96.2340	1.3319
22.0719	-96.8830	1.3306
22.1718	-97.5320	1.3291
22.2720	-98.2160	1.3293
22.3720	-98.8650	1.3364
22.4718	-99.5490	1.3301
22.5716	-100.2330	1.3334
22.6719	-100.8820	1.3339
22.7728	-101.5660	1.3288
22.8736	-102.2150	1.3354
22.9733	-102.8990	1.3330
23.0741	-103.5480	1.3343
23.1738	-104.2320	1.3333
23.2735	-104.8810	1.3331
23.3753	-105.5640	1.3316
23.4750	-106.2480	1.3321
23.5747	-106.8980	1.3335
23.6745	-107.5810	1.3343
23.7752	-108.2310	1.3306
23.8749	-108.9140	1.3392
23.9747	-109.5640	1.3341
24.0755	-110.2470	1.3335
24.1755	-110.8970	1.3345
24.2756	-111.5830	1.3321
24.3758	-112.2320	1.3294
24.4764	-112.9160	1.3333
24.5782	-113.6000	1.3322
24.6776	-114.2490	1.3306
24.7778	-114.9330	1.3300
24.8774	-115.5810	1.3328
24.9779	-116.2660	1.3308
25.0775	-116.9150	1.3337
25.1778	-117.5980	1.3326
25.2777	-118.2480	1.3325
25.3790	-118.9310	1.3345
25.4798	-119.6150	1.3300
25.5802	-120.2640	1.3298
25.6802	-120.9480	1.3292
25.7812	-121.5980	1.3377
25.8809	-122.2810	1.3286
25.9820	-122.9300	1.3350
26.0818	-123.6170	1.3334
26.1821	-124.2660	1.3338
26.2816	-124.9490	1.3302
26.3818	-125.6330	1.3359
26.4824	-126.2820	1.3370
26.5836	-126.9660	1.3335
26.6842	-127.6500	1.3293
26.7835	-128.2990	1.3321
26.8852	-128.9830	1.3406
26.9844	-129.6320	1.3363
27.0845	-130.3160	1.3333
27.1855	-130.9650	1.3285
27.2864	-131.6490	1.3330
27.3862	-132.2980	1.3319
27.4865	-132.9820	1.3343
27.5870	-133.6650	1.3332
27.6868	-134.3150	1.3333
27.7868	-134.9980	1.3325
27.8870	-135.6480	1.3366
27.9872	-136.2970	1.3349
28.0874	-136.9830	1.3381
28.1876	-137.6670	1.3322
28.2880	-138.3160	1.3343
28.3879	-139.0000	1.3312
28.4883	-139.6490	1.3348
28.5881	-140.3330	1.3294
28.6878	-140.9820	1.3370
28.7883	-141.6660	1.3349
28.8885	-142.3160	1.3333
28.9888	-142.9990	1.3352
29.0895	-143.6830	1.3323
29.1897	-144.3320	1.3324
29.2897	-145.0150	1.3361
29.3898	-145.6650	1.3328
29.4897	-146.3480	1.3270
29.5897	-146.9980	1.3315
29.6896	-147.6820	1.3338
29.7897	-148.3310	1.3349
29.8897	-149.0140	1.3291
29.9903	-149.6640	1.3385
30.0897	-150.3470	1.3309
30.1898	-150.9970	1.3333
30.2897	-151.6800	1.3340
30.3903	-152.3300	1.3307
30.4898	-153.0140	1.3357
30.5897	-153.6630	1.3356
30.6898	-154.3460	1.3292
30.7898	-154.9960	1.3329
30.8897	-155.6790	1.3336
30.9898	-156.3290	1.3344
31.0899	-157.0120	1.3343
31.1896	-157.6620	1.3355
31.2904	-158.3450	1.3374
31.3896	-158.9950	1.3353
31.4897	-159.6780	1.3333
31.5898	-160.3280	1.3352
31.6898	-161.0110	1.3360
31.7898	-161.6610	1.3364
31.8898	-162.3440	1.3305
31.9898	-162.9940	1.3309
32.0905	-163.6770	1.3350
32.1913	-164.3270	1.3425
32.2917	-165.0110	1.3360
32.3918	-165.6940	1.3260
32.4918	-166.3430	1.3333
32.5922	-167.0270	1.3317
32.6921	-167.6760	1.3352
32.7922	-168.3600	1.3322
32.8922	-169.0100	1.3341
32.9918	-169.6930	1.3293
33.0922	-170.3420	1.3299
33.1919	-171.0260	1.3333
33.2922	-171.6760	1.3337
33.3921	-172.3590	1.3334
33.4922	-173.0090	1.3355
33.5921	-173.6920	1.3311
33.6918	-174.3420	1.3320
33.7922	-175.0250	1.3318
33.8921	-175.6750	1.3326
33.9921	-176.3580	1.3344
34.0920	-177.0080	1.3315
34.1919	-177.6910	1.3334
34.2927	-178.3750	1.3315
34.3934	-179.0240	1.3309
34.4936	-179.7080	1.3351
34.5940	-180.3570	1.3311
34.6948	-181.0410	1.3311
34.7950	-181.6900	1.3308
34.8951	-182.3740	1.3271
34.9952	-183.0230	1.3333
35.0955	-183.7070	1.3354
35.1954	-184.3560	1.3314
35.2951	-185.0400	1.3333
35.3950	-185.6890	1.3271
35.4952	-186.3730	1.3273
35.5947	-187.0220	1.3339
35.6951	-187.7060	1.3296
35.7948	-188.3550	1.3306
35.8950	-189.0390	1.3340
35.9952	-189.6880	1.3281
36.0949	-190.3740	1.3312
36.1948	-191.0580	1.3326
36.2948	-191.7070	1.3342
36.3948	-192.3570	1.3322
36.4946	-193.0400	1.3361
36.5953	-193.6900	1.3333
36.6949	-194.3730	1.3348
36.7951	-195.0570	1.3368
36.8947	-195.7060	1.3348
36.9951	-196.3900	1.3386
37.0949	-197.0390	1.3356
37.1951	-197.7230	1.3347
37.2953	-198.3730	1.3347
37.3959	-199.0560	1.3326
37.4965	-199.7060	1.3331
37.5959	-200.3890	1.3334
37.6961	-201.0380	1.3324
37.7960	-201.7220	1.3354
37.8962	-202.3710	1.3335
37.9962	-203.0550	1.3315
38.0962	-203.7050	1.3314
38.1962	-204.3880	1.3316
38.2960	-205.0370	1.3287
38.3960	-205.7210	1.3347
38.4962	-206.3700	1.3323
38.5959	-207.0540	1.3284
38.6959	-207.7030	1.3334
38.7965	-208.3870	1.3312
38.8960	-209.0360	1.3357
38.9957	-209.7200	1.3296
39.0960	-210.3690	1.3324
39.1962	-211.0530	1.3353
39.2961	-211.7020	1.3325
39.3960	-212.3860	1.3297
39.4961	-213.0350	1.3308
39.5959	-213.7190	1.3308
39.6962	-214.3680	1.3314
39.7962	-215.0520	1.3324
39.8957	-215.7010	1.3328
39.9956	-216.3850	1.3318
40.0959	-217.0340	1.3360
40.1967	-217.7180	1.3341
40.2971	-218.3670	1.3349
40.3979	-219.0510	1.3359
40.4980	-219.7350	1.3351
40.5983	-220.3840	1.3323
40.6978	-221.0670	1.3334
40.7980	-221.7170	1.3297
40.8977	-222.4010	1.3319
40.9985	-223.0500	1.3372
41.0980	-223.7340	1.3337
41.1985	-224.3830	1.3353
41.2978	-225.0670	1.3318
41.3981	-225.7160	1.3317
41.4981	-226.4000	1.3292
41.5980	-227.0490	1.3315
41.6981	-227.7330	1.3307
41.7978	-228.3830	1.3340
41.8986	-229.0660	1.3304
41.9983	-229.7150	1.3353
42.0984	-230.3990	1.3352
42.1980	-231.0480	1.3333
42.2979	-231.7320	1.3340
42.3981	-232.3810	1.3324
42.4987	-233.0650	1.3278
42.6002	-233.7480	1.3297
42.6998	-234.3980	1.3312
42.7999	-235.0810	1.3344
42.8999	-235.7310	1.3298
42.9999	-236.4140	1.3339
43.0999	-237.0640	1.3367
43.1999	-237.7470	1.3315
43.2999	-238.3970	1.3327
43.3999	-239.0800	1.3336
43.4999	-239.7300	1.3353
43.5999	-240.4130	1.3377
43.7000	-241.0630	1.3284
43.7999	-241.7460	1.3311
43.8999	-242.3960	1.3324
43.9999	-243.0790	1.3334
44.1004	-243.7290	1.3321
44.2006	-244.4120	1.3330
44.2999	-245.0620	1.3338
44.3999	-245.7450	1.3345
44.5005	-246.3950	1.3326
44.5999	-247.0780	1.3323
44.6999	-247.7280	1.3307
44.7999	-248.4110	1.3324
44.8999	-249.0610	1.3294
44.9998	-249.7470	1.3303
45.0999	-250.3960	1.3276
45.2000	-251.0800	1.3287
45.2999	-251.7290	1.3281
45.4002	-252.4130	1.3338
45.5001	-253.0630	1.3287
45.6005	-253.7460	1.3267
45.7016	-254.3950	1.3255
45.8027	-255.0790	1.3280
45.9043	-255.7630	1.3319
46.0038	-256.4120	1.3311
46.1038	-257.0980	1.3310
46.2042	-257.7820	1.3317
46.3039	-258.4310	1.3320
46.4049	-259.1150	1.3281
46.5049	-259.7640	1.3299
46.6055	-260.4470	1.3315
46.7048	-261.0970	1.3320
46.8054	-261.7810	1.3328
46.9049	-262.4300	1.3281
47.0053	-263.1140	1.3303
47.1050	-263.7630	1.3273
47.2047	-264.4470	1.3296
47.3053	-265.0960	1.3277
47.4052	-265.7800	1.3270
47.5058	-266.4630	1.3276
47.6063	-267.1130	1.3259
47.7069	-267.7960	1.3265
47.8071	-268.4460	1.3205
47.9076	-269.1290	1.3252
48.0077	-269.7790	1.3240
48.1073	-270.4620	1.3217
48.2083	-271.1120	1.3222
48.3090	-271.7950	1.3170
48.4094	-272.4790	1.3185
48.5096	-273.1280	1.3197
48.6096	-273.7780	1.3190
48.7088	-274.4610	1.3158
48.8099	-275.1450	1.3163
48.9100	-275.7940	1.3144
49.0100	-276.4780	1.3126
49.1100	-277.1270	1.3131
49.2101	-277.8110	1.3125
49.3100	-278.4600	1.3092
49.4117	-279.1440	1.3049
49.5115	-279.7930	1.3048
49.6114	-280.4770	1.3019
49.7108	-281.1610	1.3006
49.8114	-281.8100	1.2957
49.9114	-282.4590	1.2932
50.0109	-283.1430	1.2927
50.1109	-283.8260	1.2870
50.2118	-284.4760	1.2802
50.3123	-285.1600	1.2797
50.4125	-285.8090	1.2727
50.5125	-286.4930	1.2634
50.6122	-287.1420	1.2611
50.7125	-287.8260	1.2598
50.8121	-288.4750	1.2487
50.9122	-289.1610	1.2442
51.0124	-289.8100	1.2350
51.1125	-290.4940	1.2212
51.2125	-291.1430	1.2107
51.3126	-291.8270	1.1979
51.4125	-292.4760	1.1902
51.5122	-293.1600	1.1734
51.6125	-293.8090	1.1535
51.7124	-294.4930	1.1346
51.8124	-295.1420	1.1188
51.9125	-295.8260	1.0942
52.0125	-296.4750	1.0705
52.1125	-297.1590	1.0417
52.2124	-297.8080	1.0151
52.3123	-298.4920	0.9766
52.4135	-299.1410	0.9418
52.5132	-299.8250	0.8986
52.6133	-300.5090	0.8536
52.7145	-301.1580	0.8031
52.8144	-301.8420	0.7372
52.9150	-302.4910	0.6717
53.0159	-303.1770	0.5951
53.1169	-303.8610	0.5155
53.2169	-304.5100	0.4308
53.3172	-305.1940	0.3184
53.4176	-305.8430	0.2078
53.5177	-306.5270	0.0766
53.6177	-307.1760	-0.0755
53.7178	-307.8600	-0.2358
53.8170	-308.5090	-0.4132
53.9174	-309.1920	-0.6232
54.0174	-309.8420	-0.8640
54.1178	-310.5260	-1.1254
54.2171	-311.1750	-1.4201
54.3169	-311.8580	-1.7576
54.4178	-312.5080	-2.1469
54.5177	-313.1920	-2.5852
54.6174	-313.8420	-3.0880
54.7178	-314.5270	-3.6755
54.8171	-315.1770	-4.3544
54.9173	-315.8600	-5.1214
55.0176	-316.0010	-5.2988
55.1178	-316.0000	-4.8598
55.2176	-316.0000	-4.6489
55.3185	-316.0000	-4.5098
55.4186	-316.0000	-4.3904
55.5183	-316.0000	-4.3180
55.6184	-316.0000	-4.2583
55.7190	-316.0000	-4.2049
55.8196	-316.0000	-4.1532
55.9194	-316.0000	-4.1191
56.0191	-316.0000	-4.0835
56.1201	-316.0000	-4.0545
56.2209	-316.0000	-4.0214
56.3202	-316.0000	-3.9909
56.4215	-316.0000	-3.9820
56.5223	-316.0000	-3.9559
56.6224	-316.0000	-3.9406
56.7228	-316.0000	-3.9156
56.8225	-316.0000	-3.9052
56.9226	-316.0000	-3.8936
57.0226	-316.0000	-3.8723
57.1226	-316.0000	-3.8621
57.2225	-316.0000	-3.8522
57.3222	-316.0000	-3.8382
57.4226	-316.0000	-3.8340
57.5225	-316.0000	-3.8110
57.6236	-316.0000	-3.8106
57.7233	-316.0000	-3.7976
57.8230	-316.0000	-3.8006
57.9238	-316.0000	-3.7899
58.0235	-316.0000	-3.7824
58.1231	-316.0000	-3.7782
58.2231	-316.0000	-3.7569
58.3237	-316.0000	-3.7552
58.4238	-316.0000	-3.7501
58.5235	-316.0000	-3.7545
58.6238	-316.0000	-3.7415
58.7237	-316.0000	-3.7354
58.8237	-316.0000	-3.7295
58.9230	-316.0000	-3.7247
59.0233	-316.0000	-3.7232
59.1230	-316.0000	-3.7198
59.2237	-316.0000	-3.7040
59.3236	-316.0000	-3.7039
59.4231	-316.0000	-3.7056
59.5231	-316.0000	-3.6968
59.6230	-316.0000	-3.6909
59.7236	-316.0000	-3.6831
59.8231	-316.0000	-3.6864
59.9236	-316.0000	-3.6857
60.0231	-316.0000	-3.6770
60.1237	-316.0000	-3.6794
60.2229	-316.0000	-3.6601
60.3241	-316.0000	-3.6745
60.4245	-316.0000	-3.6557
60.5240	-316.0000	-3.6509
60.6248	-316.0000	-3.6543
60.7241	-316.0000	-3.6546
60.8241	-316.0000	-3.6492
60.9242	-316.0000	-3.6515
61.0241	-316.0000	-3.6460
61.1247	-316.0000	-3.6383
61.2245	-316.0000	-3.6378
61.3244	-316.0000	-3.6378
61.4243	-316.0000	-3.6319
61.5249	-316.0000	-3.6302
61.6245	-316.0000	-3.6393
61.7247	-316.0000	-3.6238
61.8243	-316.0000	-3.6250
61.9244	-316.0000	-3.6259
62.0247	-316.0000	-3.6200
62.1245	-316.0000	-3.6186
62.2251	-316.0000	-3.6280
62.3257	-316.0000	-3.6178
62.4255	-316.0000	-3.6111
62.5255	-316.0000	-3.6128
62.6252	-316.0000	-3.6118
62.7252	-316.0000	-3.6079
62.8253	-316.0000	-3.6069
62.9265	-316.0000	-3.6042
63.0273	-316.0000	-3.5968
63.1290	-316.0000	-3.5968
63.2284	-316.0000	-3.6011
63.3288	-316.0000	-3.5993
63.4289	-316.0000	-3.6017
63.5288	-316.0000	-3.5913
63.6289	-316.0000	-3.5840
63.7286	-316.0000	-3.5913
63.8289	-316.0000	-3.5816
63.9281	-316.0000	-3.5797
64.0285	-316.0000	-3.5830
64.1290	-316.0000	-3.5851
64.2298	-316.0000	-3.5795
64.3300	-316.0000	-3.5735
64.4290	-316.0000	-3.5823
64.5296	-316.0000	-3.5767
64.6295	-316.0000	-3.5712
64.7297	-316.0000	-3.5709
64.8300	-316.0000	-3.5711
64.9296	-316.0000	-3.5730
65.0298	-316.0000	-3.5620
65.1302	-316.0000	-3.5621
65.2303	-316.0000	-3.5731
65.3303	-316.0000	-3.5576
65.4303	-316.0000	-3.5590
65.5303	-316.0000	-3.5592
65.6303	-316.0000	-3.5611
65.7303	-316.0000	-3.5544
65.8303	-316.0000	-3.5560
65.9304	-316.0000	-3.5563
66.0301	-316.0000	-3.5533
66.1302	-316.0000	-3.5530
66.2309	-316.0000	-3.5496
66.3304	-316.0000	-3.5438
66.4304	-316.0000	-3.5521
66.5303	-316.0000	-3.5454
66.6303	-316.0000	-3.5489
66.7303	-316.0000	-3.5435
66.8304	-316.0000	-3.5414
66.9319	-316.0000	-3.5421
67.0318	-316.0000	-3.5416
67.1319	-316.0000	-3.5429
67.2317	-316.0000	-3.5454
67.3323	-316.0000	-3.5415
67.4323	-316.0000	-3.5313
67.5328	-316.0000	-3.5428
67.6324	-316.0000	-3.5297
67.7328	-316.0000	-3.5274
67.8325	-316.0000	-3.5272
67.9324	-316.0000	-3.5394
68.0326	-316.0000	-3.5269
68.1328	-316.0000	-3.5257
68.2339	-316.0000	-3.5274
68.3334	-316.0000	-3.5251
68.4334	-316.0000	-3.5269
68.5340	-316.0000	-3.5315
68.6338	-316.0000	-3.5200
68.7340	-316.0000	-3.5216
68.8332	-316.0000	-3.5261
68.9342	-316.0000	-3.5232
69.0353	-316.0000	-3.5257
69.1355	-316.0000	-3.5189
69.2360	-316.0000	-3.5162
69.3361	-316.0000	-3.5175
69.4363	-316.0000	-3.5232
69.5366	-316.0000	-3.5150
69.6369	-316.0000	-3.5113
69.7365	-316.0000	-3.5144
69.8363	-316.0000	-3.5078
69.9368	-316.0000	-3.5028
70.0371	-316.0000	-3.5101
70.1374	-316.0000	-3.5061
70.2374	-316.0000	-3.5050
70.3378	-316.0000	-3.5094
70.4380	-316.0000	-3.5053
70.5376	-316.0000	-3.5018
70.6378	-316.0000	-3.5043
70.7379	-316.0000	-3.5053
70.8379	-316.0000	-3.5024
70.9379	-316.0000	-3.4976
71.0381	-316.0000	-3.4986
71.1372	-316.0000	-3.4966
71.2376	-316.0000	-3.4972
71.3379	-316.0000	-3.4914
71.4379	-316.0000	-3.5020
71.5381	-316.0000	-3.4976
71.6381	-316.0000	-3.4976
71.7381	-316.0000	-3.4910
71.8382	-316.0000	-3.5010
71.9394	-316.0000	-3.4976
72.0397	-316.0000	-3.4930
72.1398	-316.0000	-3.4854
72.2399	-316.0000	-3.4812
72.3396	-316.0000	-3.4857
72.4392	-316.0000	-3.4842
72.5397	-316.0000	-3.4862
72.6405	-316.0000	-3.4867
72.7405	-316.0000	-3.4852
72.8409	-316.0000	-3.4854
72.9410	-316.0000	-3.4763
73.0405	-316.0000	-3.4785
73.1404	-316.0000	-3.4826
73.2404	-316.0000	-3.4788
73.3419	-316.0000	-3.4671
73.4420	-316.0000	-3.4783
73.5427	-316.0000	-3.4814
73.6431	-316.0000	-3.4732
73.7425	-316.0000	-3.4690
73.8425	-316.0000	-3.4752
73.9426	-316.0000	-3.4727
74.0426	-316.0000	-3.4746
74.1427	-316.0000	-3.4718
74.2427	-316.0000	-3.4693
74.3432	-316.0000	-3.4763
74.4439	-316.0000	-3.4622
74.5443	-316.0000	-3.4570
74.6446	-316.0000	-3.4656
74.7446	-316.0000	-3.4671
74.8448	-316.0000	-3.4679
74.9449	-316.0000	-3.4608
75.0446	-316.0000	-3.4547
75.1447	-316.0000	-3.4637
75.2447	-316.0000	-3.4542
75.3446	-316.0000	-3.4556
75.4448	-316.0000	-3.4572
75.5453	-316.0000	-3.4605
75.6457	-316.0000	-3.4593
75.7453	-316.0000	-3.4546
75.8455	-316.0000	-3.4554
75.9458	-316.0000	-3.4487
76.0460	-316.0000	-3.4628
76.1459	-316.0000	-3.4692
76.2463	-316.0000	-3.4739
76.3465	-316.0000	-3.4652
76.4467	-316.0000	-3.4715
76.5477	-316.0000	-3.4602
76.6483	-316.0000	-3.4648
76.7483	-316.0000	-3.4596
76.8483	-316.0000	-3.4606
76.9486	-316.0000	-3.4580
77.0486	-316.0000	-3.4616
77.1483	-316.0000	-3.4589
77.2490	-316.0000	-3.4606
77.3492	-316.0000	-3.4608
77.4494	-316.0000	-3.4618
77.5495	-316.0000	-3.4637
77.6494	-316.0000	-3.4553
77.7494	-316.0000	-3.4402
77.8494	-316.0000	-3.4484
77.9497	-316.0000	-3.4454
78.0497	-316.0000	-3.4427
78.1502	-316.0000	-3.4534
78.2503	-316.0000	-3.4484
78.3506	-316.0000	-3.4507
78.4505	-316.0000	-3.4454
78.5505	-316.0000	-3.4477
78.6505	-316.0000	-3.4382
78.7522	-316.0000	-3.4467
78.8518	-316.0000	-3.4360
78.9515	-316.0000	-3.4494
79.0517	-316.0000	-3.4435
79.1518	-316.0000	-3.4420
79.2526	-316.0000	-3.4447
79.3529	-316.0000	-3.4336
79.4530	-316.0000	-3.4375
79.5530	-316.0000	-3.4389
79.6530	-316.0000	-3.4377
79.7525	-316.0000	-3.4341
79.8526	-316.0000	-3.4428
79.9530	-316.0000	-3.4390
80.0529	-316.0000	-3.4268
80.1525	-316.0000	-3.4347
80.2530	-316.0000	-3.4270
80.3530	-316.0000	-3.4236
80.4530	-316.0000	-3.4254
80.5529	-316.0000	-3.4292
80.6523	-316.0000	-3.4291
80.7529	-316.0000	-3.4238
80.8526	-316.0000	-3.4230
80.9523	-316.0000	-3.4313
81.0531	-316.0000	-3.4283
81.1525	-316.0000	-3.4242
81.2530	-316.0000	-3.4193
81.3530	-316.0000	-3.4204
81.4529	-316.0000	-3.4221
81.5530	-316.0000	-3.4266
81.6530	-316.0000	-3.4176
81.7527	-316.0000	-3.4176
81.8530	-316.0000	-3.4246
81.9529	-316.0000	-3.4191
82.0530	-316.0000	-3.4108
82.1532	-316.0000	-3.4153
82.2529	-316.0000	-3.4119
82.3529	-316.0000	-3.4155
82.4529	-316.0000	-3.4120
82.5528	-316.0000	-3.4169
82.6529	-316.0000	-3.4105
82.7528	-316.0000	-3.4176
82.8529	-316.0000	-3.4067
82.9528	-316.0000	-3.4076
83.0530	-316.0000	-3.4046
83.1530	-316.0000	-3.3996
83.2535	-316.0000	-3.4056
83.3536	-316.0000	-3.4010
83.4542	-316.0000	-3.4042
83.5539	-316.0000	-3.4018
83.6541	-316.0000	-3.4033
83.7538	-316.0000	-3.3983
83.8540	-316.0000	-3.4005
83.9544	-316.0000	-3.3919
84.0547	-316.0000	-3.3966
84.1563	-316.0000	-3.3974
84.2560	-316.0000	-3.3954
84.3558	-316.0000	-3.3957
84.4555	-316.0000	-3.3978
84.5573	-316.0000	-3.3899
84.6570	-316.0000	-3.3922
84.7567	-316.0000	-3.3962
84.8565	-316.0000	-3.3900
84.9572	-316.0000	-3.3928
85.0570	-316.0000	-3.3807
85.1567	-316.0000	-3.3866
85.2564	-316.0000	-3.3873
85.3571	-316.0000	-3.3894
85.4570	-316.0000	-3.3870
85.5575	-316.0000	-3.3856
85.6574	-316.0000	-3.3766
85.7578	-316.0000	-3.3921
85.8580	-316.0000	-3.3789
85.9583	-316.0000	-3.3753
86.0581	-316.0000	-3.3801
86.1577	-316.0000	-3.3868
86.2580	-316.0000	-3.3784
86.3581	-316.0000	-3.3760
86.4584	-316.0000	-3.3728
86.5579	-316.0000	-3.3797
86.6579	-316.0000	-3.3763
86.7587	-316.0000	-3.3697
86.8585	-316.0000	-3.3702
86.9588	-316.0000	-3.3667
87.0593	-316.0000	-3.3719
87.1592	-316.0000	-3.3653
87.2592	-316.0000	-3.3679
87.3592	-316.0000	-3.3637
87.4584	-316.0000	-3.3608
87.5584	-316.0000	-3.3640
87.6594	-316.0000	-3.3677
87.7595	-316.0000	-3.3626
87.8595	-316.0000	-3.3651
87.9595	-316.0000	-3.3628
88.0607	-316.0000	-3.3596
88.1607	-316.0000	-3.3593
88.2607	-316.0000	-3.3607
88.3607	-316.0000	-3.3655
88.4607	-316.0000	-3.3616
88.5607	-316.0000	-3.3611
88.6607	-316.0000	-3.3557
88.7607	-315.9990	-3.3678
88.8613	-315.9990	-3.3520
88.9607	-315.9990	-3.3443
89.0607	-315.9990	-3.3570
89.1611	-316.0000	-3.3532
89.2613	-315.9990	-3.3553
89.3620	-316.0000	-3.3515
89.4615	-316.0000	-3.3485
89.5622	-316.0000	-3.3534
89.6617	-316.0000	-3.3477
89.7620	-316.0000	-3.3467
89.8619	-316.0000	-3.3478
89.9615	-316.0000	-3.3530
90.0624	-316.0000	-3.3424
90.1616	-316.0000	-3.3408
90.2616	-316.0000	-3.3387
90.3615	-316.0000	-3.3509
90.4615	-316.0000	-3.3337
90.5624	-316.0000	-3.3400
90.6621	-316.0000	-3.3404
90.7622	-316.0000	-3.3427
90.8623	-316.0000	-3.3413
90.9634	-316.0000	-3.3415
91.0629	-316.0000	-3.3274
91.1642	-316.0000	-3.3461
91.2645	-316.0000	-3.3364
91.3648	-316.0000	-3.3262
91.4657	-316.0000	-3.3421
91.5660	-316.0000	-3.3309
91.6664	-316.0000	-3.3268
91.7663	-316.0000	-3.3328
91.8665	-316.0000	-3.3308
91.9666	-316.0000	-3.3322
92.0671	-316.0000	-3.3207
92.1672	-316.0000	-3.3288
92.2676	-316.0000	-3.3284
92.3686	-316.0000	-3.3266
92.4697	-316.0000	-3.3210
92.5713	-316.0000	-3.3166
92.6708	-316.0000	-3.3258
92.7708	-316.0000	-3.3245
92.8709	-316.0000	-3.3251
92.9708	-316.0000	-3.3225
93.0708	-316.0000	-3.3238
93.1708	-316.0000	-3.3182
93.2708	-316.0000	-3.3200
93.3708	-316.0000	-3.3142
93.4707	-316.0000	-3.3130
93.5709	-316.0000	-3.3199
93.6708	-316.0000	-3.3208
93.7706	-316.0000	-3.3101
93.8709	-316.0000	-3.3132
93.9708	-316.0000	-3.3101
94.0708	-316.0000	-3.3105
94.1708	-316.0000	-3.3085
94.2708	-316.0000	-3.3109
94.3708	-316.0000	-3.3082
94.4710	-316.0000	-3.3058
94.5708	-316.0000	-3.2986
94.6709	-316.0000	-3.2918
94.7723	-316.0000	-3.2947
94.8720	-316.0000	-3.3008
94.9722	-316.0000	-3.2976
95.0718	-316.0000	-3.2955
95.1722	-316.0000	-3.2922
95.2728	-316.0000	-3.2970
95.3731	-316.0000	-3.2955
95.4733	-316.0000	-3.2927
95.5733	-316.0000	-3.2888
95.6732	-316.0000	-3.2871
95.7732	-316.0000	-3.2896
95.8731	-316.0000	-3.2893
95.9733	-316.0000	-3.2876
96.0733	-316.0000	-3.2832
96.1733	-316.0000	-3.2865
96.2726	-316.0000	-3.2831
96.3731	-316.0000	-3.2774
96.4733	-316.0000	-3.2861
96.5732	-316.0000	-3.2848
96.6732	-316.0000	-3.2809
96.7733	-316.0000	-3.2732
96.8732	-316.0000	-3.2777
96.9743	-316.0000	-3.2816
97.0749	-316.0000	-3.2741
97.1752	-316.0000	-3.2791
97.2754	-316.0000	-3.2721
97.3748	-316.0000	-3.2746
97.4756	-316.0000	-3.2690
97.5758	-316.0000	-3.2740
97.6769	-316.0000	-3.2712
97.7772	-316.0000	-3.2722
97.8771	-316.0000	-3.2740
97.9776	-316.0000	-3.2631
98.0767	-316.0000	-3.2682
98.1767	-316.0000	-3.2668
98.2772	-316.0000	-3.2672
98.3776	-316.0000	-3.2621
98.4778	-316.0000	-3.2521
98.5779	-316.0000	-3.2595
98.6786	-316.0000	-3.2580
98.7778	-316.0000	-3.2576
98.8785	-316.0000	-3.2582
98.9786	-316.0000	-3.2612
99.0787	-316.0000	-3.2568
99.1786	-316.0000	-3.2559
99.2798	-316.0000	-3.2571
99.3796	-316.0000	-3.2527
99.4807	-316.0000	-3.2476
99.5809	-316.0000	-3.2492
99.6809	-316.0000	-3.2539
99.7810	-316.0000	-3.2476
99.8809	-316.0000	-3.2459
99.9809	-316.0000	-3.2468
100.0808	-316.0000	-3.2441
100.1826	-316.0000	-3.2505
100.2823	-316.0000	-3.2432
100.3826	-316.0000	-3.2403
100.4823	-316.0000	-3.2440
100.5823	-316.0000	-3.2423
100.6817	-316.0000	-3.2396
100.7825	-316.0000	-3.2385
100.8823	-316.0000	-3.2357
100.9824	-316.0000	-3.2332
101.0819	-316.0000	-3.2341
101.1819	-316.0000	-3.2363
101.2825	-316.0000	-3.2331
101.3823	-316.0000	-3.2349
101.4831	-316.0000	-3.2273
101.5834	-316.0000	-3.2284
101.6830	-316.0000	-3.2288
101.7833	-316.0000	-3.2237
101.8834	-316.0000	-3.2266
101.9834	-316.0000	-3.2234
102.0832	-316.0000	-3.2245
102.1834	-316.0000	-3.2199
102.2833	-316.0000	-3.2206
102.3833	-316.0000	-3.2190
102.4834	-316.0000	-3.2267
102.5830	-316.0000	-3.2180
102.6834	-316.0000	-3.2168
102.7834	-316.0000	-3.2083
102.8834	-316.0000	-3.2131
102.9834	-316.0000	-3.2161
103.0831	-316.0000	-3.2098
103.1834	-316.0000	-3.2185
103.2834	-316.0000	-3.2131
103.3834	-316.0000	-3.2183
103.4834	-316.0000	-3.2091
103.5828	-316.0000	-3.2123
103.6828	-316.0000	-3.2116
103.7834	-316.0000	-3.2082
103.8834	-316.0000	-3.2047
103.9834	-316.0000	-3.2096
104.0834	-316.0000	-3.2101
104.1831	-316.0000	-3.2034
104.2830	-316.0000	-3.2005
104.3830	-316.0000	-3.1985
104.4830	-316.0000	-3.2062
104.5830	-316.0000	-3.1978
104.6830	-316.0000	-3.1996
104.7830	-316.0000	-3.1948
104.8841	-316.0000	-3.2056
104.9840	-316.0000	-3.1897
105.0844	-316.0000	-3.1926
105.1848	-316.0000	-3.1922
105.2850	-316.0000	-3.1981
105.3851	-316.0000	-3.1963
105.4854	-316.0000	-3.1855
105.5850	-316.0000	-3.1834
105.6856	-316.0000	-3.1849
105.7851	-316.0000	-3.1911
105.8853	-316.0000	-3.1869
105.9854	-316.0000	-3.1820
106.0853	-316.0000	-3.1824
106.1853	-316.0000	-3.1820
106.2854	-316.0000	-3.1839
106.3855	-316.0000	-3.1771
106.4855	-316.0000	-3.1743
106.5855	-316.0000	-3.1808
106.6853	-316.0000	-3.1767
106.7853	-316.0000	-3.1730
106.8853	-316.0000	-3.1812
106.9852	-316.0000	-3.1734
107.0848	-316.0000	-3.1736
107.1849	-316.0000	-3.1814
107.2851	-316.0000	-3.1681
107.3859	-316.0000	-3.1691
107.4863	-316.0000	-3.1631
107.5862	-316.0000	-3.1701
107.6862	-316.0000	-3.1675
107.7864	-316.0000	-3.1644
107.8859	-316.0000	-3.1612
107.9862	-316.0000	-3.1651
108.0862	-316.0000	-3.1570
108.1863	-316.0000	-3.1544
108.2863	-316.0000	-3.1571
108.3863	-316.0000	-3.1564
108.4865	-316.0000	-3.1536
108.5866	-316.0000	-3.1537
108.6865	-316.0000	-3.1488
108.7864	-316.0000	-3.1415
108.8864	-316.0000	-3.1432
108.9866	-316.0000	-3.1469
109.0874	-316.0000	-3.1476
109.1879	-316.0000	-3.1341
109.2880	-316.0000	-3.1343
109.3881	-316.0000	-3.1331
109.4885	-316.0000	-3.1319
109.5884	-316.0000	-3.1298
109.6888	-316.0000	-3.1312
109.7887	-316.0000	-3.1310
109.8894	-316.0000	-3.1288
109.9895	-316.0000	-3.1247
110.0890	-316.0000	-3.1182
110.1888	-316.0000	-3.1173
110.2894	-316.0000	-3.1233
110.3898	-316.0000	-3.1106
110.4898	-316.0000	-3.1148
110.5906	-316.0000	-3.1120
110.6914	-316.0000	-3.1218
110.7911	-316.0000	-3.1094
110.8910	-316.0000	-3.1125
110.9911	-316.0000	-3.1067
111.0911	-316.0000	-3.1086
111.1918	-316.0000	-3.1044
111.2911	-316.0000	-3.1044
111.3912	-316.0000	-3.0992
111.4917	-316.0000	-3.1025
111.5911	-316.0000	-3.1015
111.6916	-316.0000	-3.0866
111.7911	-316.0000	-3.0969
111.8911	-316.0000	-3.0920
111.9911	-316.0000	-3.0872
112.0909	-316.0000	-3.0907
112.1911	-316.0000	-3.0918
112.2911	-316.0000	-3.0915
112.3910	-316.0000	-3.0781
112.4912	-316.0000	-3.0820
112.5912	-316.0000	-3.0840
112.6912	-316.0000	-3.0807
112.7912	-316.0000	-3.0718
112.8911	-316.0000	-3.0769
112.9912	-316.0000	-3.0724
113.0911	-316.0000	-3.0724
113.1912	-316.0000	-3.0584
113.2911	-316.0000	-3.0644
113.3911	-316.0000	-3.0677
113.4912	-316.0000	-3.0549
113.5911	-316.0000	-3.0487
113.6912	-316.0000	-3.0529
113.7913	-316.0000	-3.0491
113.8912	-316.0000	-3.0445
113.9926	-316.0000	-3.0522
114.0925	-316.0000	-3.0423
114.1925	-316.0000	-3.0444
114.2928	-316.0000	-3.0379
114.3938	-316.0000	-3.0437
114.4931	-316.0000	-3.0481
114.5933	-316.0000	-3.0363
114.6936	-316.0000	-3.0400
114.7936	-316.0000	-3.0398
114.8936	-316.0000	-3.0245
114.9935	-316.0000	-3.0388
115.0936	-316.0000	-3.0318
115.1936	-316.0000	-3.0295
115.2935	-316.0000	-3.0355
115.3933	-316.0000	-3.0333
115.4936	-316.0000	-3.0268
115.5936	-316.0000	-3.0130
115.6935	-316.0000	-3.0195
115.7937	-316.0000	-3.0185
115.8933	-316.0000	-3.0287
115.9939	-316.0000	-3.0186
116.0947	-316.0000	-3.0171
116.1944	-316.0000	-3.0143
116.2946	-316.0000	-3.0183
116.3943	-316.0000	-3.0122
116.4948	-316.0000	-3.0082
116.5946	-316.0000	-3.0070
116.6947	-316.0000	-3.0111
116.7945	-316.0000	-3.0079
116.8947	-316.0000	-2.9973
116.9948	-316.0000	-2.9996
117.0941	-316.0000	-2.9967
117.1948	-316.0000	-3.0006
117.2948	-316.0000	-2.9939
117.3943	-316.0000	-2.9994
117.4948	-316.0000	-2.9957
117.5950	-316.0000	-3.0042
117.6951	-316.0000	-2.9914
117.7952	-316.0000	-2.9912
117.8956	-316.0000	-2.9919
117.9959	-316.0000	-2.9830
118.0955	-316.0000	-2.9892
118.1962	-316.0000	-2.9845
118.2964	-316.0000	-2.9972
118.3971	-316.0000	-2.9797
118.4976	-316.0000	-2.9802
118.5980	-316.0000	-2.9833
118.6990	-316.0000	-2.9796
118.8002	-316.0000	-2.9732
118.9002	-316.0000	-2.9700
119.0017	-316.0000	-2.9713
119.1013	-316.0000	-2.9789
119.2011	-316.0000	-2.9668
119.3012	-316.0000	-2.9707
119.4013	-316.0000	-2.9757
119.5026	-316.0000	-2.9687
119.6020	-316.0000	-2.9687
119.7022	-316.0000	-2.9623
119.8038	-316.0000	-2.9699
119.9042	-316.0000	-2.9628
120.0043	-316.0000	-2.9544
120.1059	-316.0000	-2.9590
120.2056	-316.0000	-2.9522
120.3053	-316.0000	-2.9612
120.4063	-316.0000	-2.9595
120.5061	-316.0000	-2.9573
120.6070	-316.0000	-2.9424
120.7068	-316.0000	-2.9469
120.8068	-316.0000	-2.9398
120.9069	-316.0000	-2.9411
121.0065	-316.0000	-2.9396
121.1070	-316.0000	-2.9450
121.2075	-316.0000	-2.9457
121.3075	-316.0000	-2.9464
121.4073	-316.0000	-2.9438
121.5074	-316.0000	-2.9420
121.6081	-316.0000	-2.9334
121.7081	-316.0000	-2.9364
121.8091	-316.0000	-2.9277
121.9093	-316.0000	-2.9379
122.0101	-316.0000	-2.9327
122.1114	-316.0000	-2.9337
122.2113	-316.0000	-2.9310
122.3113	-316.0000	-2.9287
122.4113	-316.0000	-2.9263
122.5113	-316.0000	-2.9270
122.6116	-316.0000	-2.9175
122.7113	-316.0000	-2.9217
122.8113	-316.0000	-2.9222
122.9113	-316.0000	-2.9211
123.0113	-316.0000	-2.9287
123.1113	-316.0000	-2.9163
123.2113	-316.0000	-2.9205
123.3113	-316.0000	-2.9191
123.4112	-316.0000	-2.9186
123.5113	-316.0000	-2.9129
123.6111	-316.0000	-2.9187
123.7112	-316.0000	-2.9120
123.8112	-316.0000	-2.9106
123.9113	-316.0000	-2.9031
124.0113	-316.0000	-2.9051
124.1113	-316.0000	-2.9018
124.2119	-316.0000	-2.9067
124.3113	-316.0000	-2.9005
124.4113	-316.0000	-2.8992
124.5122	-316.0000	-2.8913
124.6127	-316.0000	-2.9037
124.7128	-316.0000	-2.8985
124.8128	-316.0000	-2.8980
124.9126	-316.0000	-2.8890
125.0123	-316.0000	-2.8866
125.1130	-316.0000	-2.8847
125.2123	-316.0000	-2.8904
125.3135	-316.0000	-2.8846
125.4136	-316.0000	-2.8783
125.5137	-316.0000	-2.8841
125.6137	-316.0000	-2.8812
125.7136	-316.0000	-2.8775
125.8136	-316.0000	-2.8804
125.9134	-316.0000	-2.8724
126.0134	-316.0000	-2.8737
126.1135	-316.0000	-2.8667
126.2136	-316.0000	-2.8750
126.3138	-316.0000	-2.8755
126.4136	-316.0000	-2.8745
126.5133	-316.0000	-2.8670
126.6139	-316.0000	-2.8746
126.7136	-316.0000	-2.8601
126.8134	-316.0000	-2.8607
126.9136	-316.0000	-2.8615
127.0143	-316.0000	-2.8535
127.1149	-316.0000	-2.8576
127.2147	-316.0000	-2.8561
127.3153	-316.0000	-2.8533
127.4156	-316.0000	-2.8498
127.5162	-316.0000	-2.8504
127.6171	-316.0000	-2.8471
127.7171	-316.0000	-2.8452
127.8171	-316.0000	-2.8526
127.9173	-316.0000	-2.8454
128.0178	-316.0000	-2.8488
128.1173	-316.0000	-2.8395
128.2182	-316.0000	-2.8434
128.3184	-316.0000	-2.8457
128.4187	-316.0000	-2.8377
128.5188	-316.0000	-2.8327
128.6191	-316.0000	-2.8374
128.7183	-316.0000	-2.8364
128.8182	-316.0000	-2.8281
128.9183	-316.0000	-2.8320
129.0185	-316.0000	-2.8263
129.1187	-316.0000	-2.8215
129.2191	-316.0000	-2.8239
129.3186	-316.0000	-2.8215
129.4186	-316.0000	-2.8232
129.5183	-316.0000	-2.8170
129.6190	-316.0000	-2.8270
129.7190	-316.0000	-2.8164
129.8190	-316.0000	-2.8152
129.9191	-316.0000	-2.8154
130.0188	-316.0000	-2.8117
130.1191	-316.0000	-2.8003
130.2189	-316.0000	-2.8075
130.3190	-316.0000	-2.8110
130.4188	-316.0000	-2.8035
130.5188	-316.0000	-2.8065
130.6191	-316.0000	-2.8083
130.7201	-316.0000	-2.8035
130.8200	-316.0000	-2.7958
130.9200	-316.0000	-2.8030
131.0199	-316.0000	-2.7984
131.1196	-316.0000	-2.8005
131.2198	-316.0000	-2.7915
131.3204	-316.0000	-2.7968
131.4202	-316.0000	-2.7943
131.5214	-316.0000	-2.7859
131.6215	-316.0000	-2.7892
131.7214	-316.0000	-2.7921
131.8230	-316.0000	-2.7861
131.9226	-316.0000	-2.7848
132.0223	-316.0000	-2.7863
132.1222	-316.0000	-2.7832
132.2235	-316.0000	-2.7797
132.3239	-316.0000	-2.7773
132.4236	-316.0000	-2.7769
132.5239	-316.0000	-2.7813
132.6240	-316.0000	-2.7795
132.7235	-316.0000	-2.7687
132.8239	-316.0000	-2.7696
132.9239	-316.0000	-2.7682
133.0239	-316.0000	-2.7716
133.1238	-316.0000	-2.7707
133.2234	-316.0000	-2.7629
133.3239	-316.0000	-2.7718
133.4238	-316.0000	-2.7644
133.5239	-316.0000	-2.7592
133.6239	-316.0000	-2.7547
133.7239	-316.0000	-2.7536
133.8240	-316.0000	-2.7561
133.9234	-316.0000	-2.7487
134.0239	-316.0000	-2.7527
134.1238	-316.0000	-2.7476
134.2235	-316.0000	-2.7507
134.3239	-316.0000	-2.7554
134.4239	-316.0000	-2.7505
134.5239	-316.0000	-2.7444
134.6239	-316.0000	-2.7458
134.7239	-316.0000	-2.7388
134.8239	-316.0000	-2.7413
134.9239	-316.0000	-2.7393
135.0239	-316.0000	-2.7371
135.1235	-316.0000	-2.7354
135.2236	-316.0000	-2.7330
135.3234	-316.0000	-2.7300
135.4239	-316.0000	-2.7277
135.5239	-316.0000	-2.7305
135.6239	-316.0000	-2.7305
135.7238	-316.0000	-2.7274
135.8238	-316.0000	-2.7313
135.9236	-316.0000	-2.7228
136.0237	-316.0000	-2.7212
136.1236	-316.0000	-2.7232
136.2237	-316.0000	-2.7204
136.3238	-316.0000	-2.7115
136.4239	-316.0000	-2.7203
136.5236	-316.0000	-2.7105
136.6240	-316.0000	-2.7131
136.7240	-316.0000	-2.7073
136.8238	-316.0000	-2.7161
136.9239	-316.0000	-2.7057
137.0239	-316.0000	-2.7101
137.1237	-316.0000	-2.7011
137.2241	-316.0000	-2.7013
137.3243	-316.0000	-2.6968
137.4247	-316.0000	-2.6989
137.5251	-316.0000	-2.7040
137.6250	-316.0000	-2.6925
137.7250	-316.0000	-2.6981
137.8250	-316.0000	-2.6902
137.9252	-316.0000	-2.6957
138.0252	-316.0000	-2.6925
138.1243	-316.0000	-2.6861
138.2250	-316.0000	-2.6874
138.3247	-316.0000	-2.6894
138.4251	-316.0000	-2.6848
138.5244	-316.0000	-2.6787
138.6250	-316.0000	-2.6746
138.7251	-316.0000	-2.6785
138.8244	-316.0000	-2.6730
138.9252	-316.0000	-2.6810
139.0250	-316.0000	-2.6750
139.1243	-316.0000	-2.6679
139.2254	-316.0000	-2.6716
139.3265	-316.0000	-2.6681
139.4269	-316.0000	-2.6668
139.5269	-316.0000	-2.6652
139.6272	-316.0000	-2.6630
139.7273	-316.0000	-2.6602
139.8275	-316.0000	-2.6607
139.9275	-316.0000	-2.6607
140.0281	-316.0000	-2.6606
140.1281	-316.0000	-2.6579
140.2282	-316.0000	-2.6589
140.3283	-316.0000	-2.6499
140.4284	-316.0000	-2.6488
140.5285	-316.0000	-2.6508
140.6293	-316.0000	-2.6540
140.7294	-316.0000	-2.6502
140.8306	-316.0000	-2.6442
140.9307	-316.0000	-2.6469
141.0306	-316.0000	-2.6426
141.1311	-316.0000	-2.6404
141.2311	-316.0000	-2.6349
141.3308	-316.0000	-2.6389
141.4307	-316.0000	-2.6394
141.5314	-316.0000	-2.6384
141.6317	-316.0000	-2.6409
141.7324	-316.0000	-2.6336
141.8330	-316.0000	-2.6262
141.9326	-316.0000	-2.6229
142.0333	-316.0000	-2.6199
142.1332	-316.0000	-2.6196
142.2329	-316.0000	-2.6233
142.3334	-316.0000	-2.6259
142.4339	-316.0000	-2.6313
142.5342	-316.0000	-2.6164
142.6339	-316.0000	-2.6230
142.7336	-316.0000	-2.6072
142.8341	-316.0000	-2.6131
142.9337	-316.0000	-2.6108
143.0341	-316.0000	-2.6082
143.1340	-316.0000	-2.6119
143.2341	-316.0000	-2.6027
143.3341	-316.0000	-2.6051
143.4334	-316.0000	-2.6052
143.5341	-316.0000	-2.5989
143.6340	-316.0000	-2.6041
143.7341	-316.0000	-2.5998
143.8340	-316.0000	-2.5980
143.9340	-316.0000	-2.6004
144.0341	-316.0000	-2.6000
144.1341	-316.0000	-2.5922
144.2340	-316.0000	-2.5876
144.3339	-316.0000	-2.5847
144.4341	-316.0000	-2.5847
144.5340	-316.0000	-2.5793
144.6341	-316.0000	-2.5780
144.7341	-316.0000	-2.5807
144.8346	-316.0000	-2.5751
144.9345	-316.0000	-2.5769
145.0353	-316.0000	-2.5739
145.1353	-316.0000	-2.5798
145.2348	-316.0000	-2.5735
145.3353	-316.0000	-2.5631
145.4355	-316.0000	-2.5687
145.5357	-316.0000	-2.5720
145.6355	-316.0000	-2.5718
145.7361	-316.0000	-2.5740
145.8358	-316.0000	-2.5664
145.9355	-316.0000	-2.5606
146.0363	-316.0000	-2.5624
146.1360	-316.0000	-2.5589
146.2358	-316.0000	-2.5623
146.3355	-316.0000	-2.5586
146.4362	-316.0000	-2.5488
146.5360	-316.0000	-2.5494
146.6357	-316.0000	-2.5506
146.7374	-316.0000	-2.5459
146.8372	-316.0000	-2.5412
146.9374	-316.0000	-2.5384
147.0376	-316.0000	-2.5412
147.1375	-316.0000	-2.5328
147.2379	-316.0000	-2.5390
147.3383	-316.0000	-2.5284
147.4383	-316.0000	-2.5296
147.5386	-316.0000	-2.5294
147.6386	-316.0000	-2.5261
147.7390	-316.0000	-2.5312
147.8390	-316.0000	-2.5287
147.9388	-316.0000	-2.5205
148.0394	-316.0000	-2.5166
148.1397	-316.0000	-2.5168
148.2398	-316.0000	-2.5248
148.3400	-316.0000	-2.5228
148.4399	-316.0000	-2.5233
148.5399	-316.0000	-2.5169
148.6399	-316.0000	-2.5101
148.7403	-316.0000	-2.5038
148.8403	-316.0000	-2.5129
148.9399	-316.0000	-2.5104
149.0401	-316.0000	-2.5096
149.1400	-316.0000	-2.4990
149.2407	-316.0000	-2.5089
149.3417	-316.0000	-2.4941
149.4425	-316.0000	-2.5069
149.5416	-316.0000	-2.4961
149.6418	-316.0000	-2.5001
149.7418	-316.0000	-2.4851
149.8418	-316.0000	-2.4993
149.9418	-316.0000	-2.4888
150.0416	-316.0000	-2.4834
150.1418	-316.0000	-2.4964
150.2421	-316.0000	-2.4890
150.3418	-316.0000	-2.4861
150.4418	-316.0000	-2.4894
150.5418	-316.0000	-2.4827
150.6418	-316.0000	-2.4818
150.7418	-316.0000	-2.4727
150.8418	-316.0000	-2.4775
150.9418	-316.0000	-2.4768
151.0421	-316.0000	-2.4773
151.1418	-316.0000	-2.4685
151.2418	-316.0000	-2.4719
151.3418	-316.0000	-2.4676
151.4418	-316.0000	-2.4605
151.5418	-316.0000	-2.4564
151.6418	-316.0000	-2.4583
151.7418	-316.0000	-2.4609
151.8418	-316.0000	-2.4493
151.9418	-316.0000	-2.4535
152.0418	-316.0000	-2.4530
152.1418	-316.0000	-2.4519
152.2418	-316.0000	-2.4508
152.3418	-316.0000	-2.4459
152.4418	-316.0000	-2.4389
152.5422	-316.0000	-2.4403
152.6424	-316.0000	-2.4389
152.7418	-316.0000	-2.4383
152.8418	-316.0000	-2.4354
152.9418	-316.0000	-2.4358
153.0417	-316.0000	-2.4357
153.1418	-316.0000	-2.4285
153.2435	-316.0000	-2.4296
153.3433	-316.0000	-2.4285
153.4434	-316.0000	-2.4295
153.5428	-316.0000	-2.4238
153.6434	-316.0000	-2.4183
153.7432	-316.0000	-2.4166
153.8431	-316.0000	-2.4195
153.9432	-316.0000	-2.4165
154.0444	-316.0000	-2.4165
154.1439	-316.0000	-2.4182
154.2443	-316.0000	-2.4164
154.3443	-316.0000	-2.4087
154.4443	-316.0000	-2.4120
154.5443	-316.0000	-2.4115
154.6441	-316.0000	-2.4078
154.7439	-316.0000	-2.3961
154.8443	-316.0000	-2.4016
154.9443	-316.0000	-2.4030
155.0443	-316.0000	-2.3966
155.1438	-316.0000	-2.3982
155.2442	-316.0000	-2.3915
155.3442	-316.0000	-2.3922
155.4439	-316.0000	-2.3895
155.5443	-316.0000	-2.3841
155.6447	-316.0000	-2.3903
155.7459	-316.0000	-2.3804
155.8462	-316.0000	-2.3792
155.9464	-316.0000	-2.3891
156.0466	-316.0000	-2.3733
156.1466	-316.0000	-2.3728
156.2472	-316.0000	-2.3709
156.3473	-316.0000	-2.3730
156.4478	-316.0000	-2.3750
156.5483	-316.0000	-2.3696
156.6481	-316.0000	-2.3630
156.7484	-316.0000	-2.3573
156.8486	-316.0000	-2.3615
156.9487	-316.0000	-2.3516
157.0488	-316.0000	-2.3635
157.1492	-316.0000	-2.3506
157.2501	-316.0000	-2.3550
157.3501	-316.0000	-2.3513
157.4502	-316.0000	-2.3520
157.5501	-316.0000	-2.3487
157.6501	-316.0000	-2.3413
157.7501	-316.0000	-2.3495
157.8498	-316.0000	-2.3386
157.9500	-316.0000	-2.3388
158.0501	-316.0000	-2.3350
158.1501	-316.0000	-2.3381
158.2505	-316.0000	-2.3387
158.3501	-316.0000	-2.3278
158.4498	-316.0000	-2.3300
158.5501	-316.0000	-2.3229
158.6501	-316.0000	-2.3297
158.7503	-316.0000	-2.3188
158.8503	-316.0000	-2.3169
158.9506	-316.0000	-2.3146
159.0507	-316.0000	-2.3134
159.1507	-316.0000	-2.3177
159.2507	-316.0000	-2.3077
159.3507	-316.0000	-2.3057
159.4508	-316.0000	-2.2994
159.5519	-316.0000	-2.3048
159.6519	-316.0000	-2.2942
159.7533	-316.0000	-2.2937
159.8534	-316.0000	-2.2952
159.9532	-316.0000	-2.2898
160.0535	-316.0000	-2.2961
160.1543	-316.0000	-2.2921
160.2542	-316.0000	-2.2942
160.3543	-316.0000	-2.2864
160.4544	-316.0000	-2.2876
160.5540	-316.0000	-2.2778
160.6540	-316.0000	-2.2754
160.7543	-316.0000	-2.2736
160.8539	-316.0000	-2.2717
160.9544	-316.0000	-2.2728
161.0544	-316.0000	-2.2696
161.1544	-316.0000	-2.2635
161.2542	-316.0000	-2.2725
161.3540	-316.0000	-2.2580
161.4540	-316.0000	-2.2599
161.5544	-316.0000	-2.2589
161.6544	-316.0000	-2.2557
161.7537	-316.0000	-2.2571
161.8544	-316.0000	-2.2505
161.9543	-316.0000	-2.2540
162.0544	-316.0000	-2.2512
162.1545	-316.0000	-2.2456
162.2540	-316.0000	-2.2445
162.3544	-316.0000	-2.2426
162.4543	-316.0000	-2.2401
162.5544	-316.0000	-2.2370
162.6543	-316.0000	-2.2351
162.7549	-316.0000	-2.2285
162.8557	-316.0000	-2.2362
162.9547	-316.0000	-2.2283
163.0556	-316.0000	-2.2238
163.1553	-316.0000	-2.2164
163.2554	-316.0000	-2.2269
163.3557	-316.0000	-2.2209
163.4549	-316.0000	-2.2137
163.5549	-316.0000	-2.2169
163.6560	-316.0000	-2.2105
163.7560	-316.0000	-2.2151
163.8558	-316.0000	-2.2161
163.9557	-316.0000	-2.2034
164.0569	-316.0000	-2.2068
164.1567	-316.0000	-2.2037
164.2575	-316.0000	-2.1958
164.3578	-316.0000	-2.2001
164.4584	-316.0000	-2.1955
164.5583	-316.0000	-2.1940
164.6581	-316.0000	-2.1907
164.7579	-316.0000	-2.1920
164.8590	-316.0000	-2.1878
164.9599	-316.0000	-2.1765
165.0609	-316.0000	-2.1764
165.1608	-316.0000	-2.1705
165.2619	-316.0000	-2.1671
165.3620	-316.0000	-2.1700
165.4620	-316.0000	-2.1697
165.5621	-316.0000	-2.1672
165.6625	-316.0000	-2.1622
165.7621	-316.0000	-2.1596
165.8621	-316.0000	-2.1555
165.9621	-316.0000	-2.1596
166.0621	-316.0000	-2.1596
166.1621	-316.0000	-2.1445
166.2621	-316.0000	-2.1515
166.3621	-316.0000	-2.1406
166.4621	-316.0000	-2.1417
166.5621	-316.0000	-2.1400
166.6621	-316.0000	-2.1338
166.7622	-316.0000	-2.1439
166.8621	-316.0000	-2.1371
166.9621	-316.0000	-2.1311
167.0621	-316.0000	-2.1311
167.1621	-316.0000	-2.1310
167.2621	-316.0000	-2.1304
167.3621	-316.0000	-2.1228
167.4621	-316.0000	-2.1233
167.5621	-316.0000	-2.1137
167.6621	-316.0000	-2.1179
167.7621	-316.0000	-2.1103
167.8621	-316.0000	-2.1067
167.9621	-316.0000	-2.0985
168.0622	-316.0000	-2.0997
168.1621	-316.0000	-2.0993
168.2623	-316.0000	-2.0901
168.3621	-316.0000	-2.0951
168.4628	-316.0000	-2.0905
168.5619	-316.0000	-2.0869
168.6621	-316.0000	-2.0815
168.7626	-316.0000	-2.0675
168.8621	-316.0000	-2.0770
168.9620	-316.0000	-2.0751
169.0625	-316.0000	-2.0666
169.1637	-316.0000	-2.0643
169.2648	-316.0000	-2.0657
169.3645	-316.0000	-2.0629
169.4645	-316.0000	-2.0663
169.5644	-316.0000	-2.0601
169.6645	-316.0000	-2.0585
169.7647	-316.0000	-2.0565
169.8643	-316.0000	-2.0536
169.9646	-316.0000	-2.0455
170.0644	-316.0000	-2.0402
170.1645	-316.0000	-2.0404
170.2648	-316.0000	-2.0406
170.3646	-316.0000	-2.0323
170.4646	-316.0000	-2.0358
170.5641	-316.0000	-2.0258
170.6646	-316.0000	-2.0313
170.7650	-316.0000	-2.0246
170.8653	-316.0000	-2.0296
170.9657	-316.0000	-2.0151
171.0660	-316.0000	-2.0137
171.1668	-316.0000	-2.0122
171.2667	-316.0000	-2.0126
171.3664	-316.0000	-2.0139
171.4665	-316.0000	-2.0125
171.5664	-316.0000	-2.0082
171.6661	-316.0000	-2.0014
171.7660	-316.0000	-1.9975
171.8669	-316.0000	-1.9934
171.9670	-316.0000	-1.9978
172.0670	-316.0000	-1.9887
172.1675	-316.0000	-1.9917
172.2674	-316.0000	-1.9951
172.3676	-316.0000	-1.9881
172.4674	-316.0000	-1.9811
172.5679	-316.0000	-1.9758
172.6690	-316.0000	-1.9767
172.7691	-316.0000	-1.9772
172.8689	-316.0000	-1.9742
172.9696	-316.0000	-1.9709
173.0698	-316.0000	-1.9640
173.1691	-316.0000	-1.9758
173.2691	-316.0000	-1.9613
173.3699	-316.0000	-1.9592
173.4689	-316.0000	-1.9572
173.5697	-316.0000	-1.9591
173.6700	-316.0000	-1.9523
173.7711	-316.0000	-1.9611
173.8709	-316.0000	-1.9499
173.9711	-316.0000	-1.9430
174.0710	-316.0000	-1.9443
174.1710	-316.0000	-1.9392
174.2728	-316.0000	-1.9385
174.3726	-316.0000	-1.9328
174.4723	-316.0000	-1.9305
174.5721	-316.0000	-1.9330
174.6739	-316.0000	-1.9272
174.7749	-316.0000	-1.9200
174.8751	-316.0000	-1.9223
174.9758	-316.0000	-1.9155
175.0752	-316.0000	-1.9150
175.1764	-316.0000	-1.9076
175.2764	-316.0000	-1.9074
175.3765	-316.0000	-1.9108
175.4766	-316.0000	-1.9032
175.5771	-316.0000	-1.8986
175.6775	-316.0000	-1.8971
175.7779	-316.0000	-1.8939
175.8773	-316.0000	-1.8927
175.9782	-316.0000	-1.8873
176.0789	-316.0000	-1.8841
176.1780	-316.0000	-1.8774
176.2781	-316.0000	-1.8748
176.3781	-316.0000	-1.8792
176.4791	-316.0000	-1.8701
176.5794	-316.0000	-1.8749
176.6796	-316.0000	-1.8617
176.7794	-316.0000	-1.8577
176.8794	-316.0000	-1.8668
176.9796	-316.0000	-1.8603
177.0799	-316.0000	-1.8604
177.1796	-316.0000	-1.8631
177.2798	-316.0000	-1.8462
177.3799	-316.0000	-1.8529
177.4799	-316.0000	-1.8479
177.5799	-316.0000	-1.8404
177.6792	-316.0000	-1.8415
177.7799	-316.0000	-1.8406
177.8800	-316.0000	-1.8237
177.9805	-316.0000	-1.8300
178.0804	-316.0000	-1.8291
178.1804	-316.0000	-1.8165
178.2802	-316.0000	-1.8159
178.3801	-316.0000	-1.8101
178.4801	-316.0000	-1.8102
178.5801	-316.0000	-1.8059
178.6808	-316.0000	-1.7955
178.7809	-316.0000	-1.7975
178.8809	-316.0000	-1.7945
178.9809	-316.0000	-1.7854
179.0808	-316.0000	-1.7884
179.1808	-316.0000	-1.7797
179.2807	-316.0000	-1.7765
179.3805	-316.0000	-1.7752
179.4804	-316.0000	-1.7722
179.5803	-316.0000	-1.7645
179.6820	-316.0000	-1.7575
179.7813	-316.0000	-1.7663
179.8820	-316.0000	-1.7612
179.9819	-316.0000	-1.7559
180.0816	-316.0000	-1.7469
180.1817	-316.0000	-1.7445
180.2823	-316.0000	-1.7429
180.3823	-316.0000	-1.7400
180.4823	-316.0000	-1.7374
180.5823	-316.0000	-1.7317
180.6823	-316.0000	-1.7221
180.7823	-316.0000	-1.7317
180.8826	-316.0000	-1.7226
180.9823	-316.0000	-1.7172
181.0823	-316.0000	-1.7162
181.1824	-316.0000	-1.7115
181.2826	-316.0000	-1.7074
181.3823	-316.0000	-1.7031
181.4823	-316.0000	-1.7040
181.5823	-316.0000	-1.6982
181.6823	-316.0000	-1.7020
181.7824	-316.0000	-1.6948
181.8823	-316.0000	-1.6913
181.9824	-316.0000	-1.6895
182.0823	-316.0000	-1.6899
182.1824	-316.0000	-1.6917
182.2830	-316.0000	-1.6854
182.3823	-316.0000	-1.6819
182.4824	-316.0000	-1.6719
182.5829	-316.0000	-1.6682
182.6824	-316.0000	-1.6676
182.7837	-316.0000	-1.6682
182.8841	-316.0000	-1.6691
182.9847	-316.0000	-1.6619
183.0848	-316.0000	-1.6597
183.1847	-316.0000	-1.6575
183.2853	-316.0000	-1.6572
183.3866	-316.0000	-1.6569
183.4870	-316.0000	-1.6443
183.5879	-316.0000	-1.6505
183.6881	-316.0000	-1.6504
183.7885	-316.0000	-1.6422
183.8888	-316.0000	-1.6378
183.9886	-316.0000	-1.6428
184.0889	-316.0000	-1.6417
184.1891	-316.0000	-1.6363
184.2892	-316.0000	-1.6297
184.3892	-316.0000	-1.6203
184.4897	-316.0000	-1.6221
184.5896	-316.0000	-1.6190
184.6897	-316.0000	-1.6149
184.7900	-316.0000	-1.6115
184.8892	-316.0000	-1.6058
184.9900	-316.0000	-1.6121
185.0897	-316.0000	-1.6082
185.1894	-316.0000	-1.6020
185.2901	-316.0000	-1.6019
185.3908	-316.0000	-1.6065
185.4909	-316.0000	-1.5973
185.5910	-316.0000	-1.5910
185.6906	-316.0000	-1.5812
185.7905	-316.0000	-1.5911
185.8907	-316.0000	-1.5877
185.9904	-316.0000	-1.5877
186.0910	-316.0000	-1.5788
186.1905	-316.0000	-1.5803
186.2906	-316.0000	-1.5798
186.3905	-316.0000	-1.5798
186.4904	-316.0000	-1.5714
186.5904	-316.0000	-1.5726
186.6904	-316.0000	-1.5728
186.7906	-316.0000	-1.5634
186.8910	-316.0000	-1.5622
186.9906	-316.0000	-1.5624
187.0902	-316.0000	-1.5615
187.1911	-316.0000	-1.5516
187.2910	-316.0000	-1.5534
187.3909	-316.0000	-1.5544
187.4904	-316.0000	-1.5580
187.5905	-316.0000	-1.5488
187.6906	-316.0000	-1.5425
187.7906	-316.0000	-1.5469
187.8910	-316.0000	-1.5446
187.9912	-316.0000	-1.5390
188.0925	-316.0000	-1.5394
188.1931	-316.0000	-1.5330
188.2924	-316.0000	-1.5237
188.3923	-316.0000	-1.5264
188.4924	-316.0000	-1.5342
188.5923	-316.0000	-1.5257
188.6931	-316.0000	-1.5290
188.7931	-316.0000	-1.5175
188.8931	-316.0000	-1.5117
188.9924	-316.0000	-1.5146
189.0924	-316.0000	-1.5140
189.1925	-316.0000	-1.5055
189.2925	-316.0000	-1.5205
189.3925	-316.0000	-1.5053
189.4925	-316.0000	-1.5020
189.5925	-316.0000	-1.4994
189.6925	-316.0000	-1.5018
189.7925	-316.0000	-1.5033
189.8925	-316.0000	-1.5055
189.9930	-316.0000	-1.4956
190.0930	-316.0000	-1.5019
190.1924	-316.0000	-1.4844
190.2941	-316.0000	-1.4934
190.3949	-316.0000	-1.4902
190.4944	-316.0000	-1.4841
190.5943	-316.0000	-1.4829
190.6945	-316.0000	-1.4788
190.7948	-316.0000	-1.4801
190.8947	-316.0000	-1.4807
190.9945	-316.0000	-1.4824
191.0945	-316.0000	-1.4713
191.1948	-316.0000	-1.4713
191.2954	-316.0000	-1.4807
191.3961	-316.0000	-1.4658
191.4965	-316.0000	-1.4709
191.5970	-316.0000	-1.4612
191.6969	-316.0000	-1.4728
191.7971	-316.0000	-1.4667
191.8971	-316.0000	-1.4641
191.9971	-316.0000	-1.4603
192.0970	-316.0000	-1.4577
192.1969	-316.0000	-1.4557
192.2971	-316.0000	-1.4555
192.3974	-316.0000	-1.4485
192.4976	-316.0000	-1.4504
192.5978	-316.0000	-1.4476
192.6978	-316.0000	-1.4436
192.7983	-316.0000	-1.4440
192.8988	-316.0000	-1.4400
192.9993	-316.0000	-1.4303
193.0993	-316.0000	-1.4276
193.2002	-316.0000	-1.4350
193.3002	-316.0000	-1.4306
193.3994	-316.0000	-1.4282
193.4998	-316.0000	-1.4244
193.6005	-316.0000	-1.4300
193.7008	-316.0000	-1.4276
193.8004	-316.0000	-1.4221
193.9009	-316.0000	-1.4254
194.0010	-316.0000	-1.4249
194.1007	-316.0000	-1.4184
194.2003	-316.0000	-1.4229
194.3003	-316.0000	-1.4169
194.4011	-315.9990	-1.4100
194.5005	-315.9990	-1.4120
194.6007	-315.9990	-1.4161
194.7007	-315.9990	-1.4036
194.8007	-315.9990	-1.4081
194.9014	-315.9990	-1.4040
195.0014	-316.0000	-1.4018
195.1018	-316.0000	-1.4003
195.2013	-316.0000	-1.3985
195.3019	-316.0000	-1.3973
195.4024	-316.0000	-1.4001
195.5032	-316.0000	-1.3949
195.6031	-316.0000	-1.3843
195.7030	-316.0000	-1.4002
195.8027	-316.0000	-1.3868
195.9028	-316.0000	-1.3972
196.0026	-316.0000	-1.3892
196.1026	-316.0000	-1.3842
196.2024	-316.0000	-1.3887
196.3042	-316.0000	-1.3793
196.4039	-316.0000	-1.3884
196.5042	-316.0000	-1.3795
196.6045	-316.0000	-1.3871
196.7051	-316.0000	-1.3778
196.8048	-316.0000	-1.3756
196.9050	-316.0000	-1.3697
197.0048	-316.0000	-1.3708
197.1050	-316.0000	-1.3693
197.2050	-316.0000	-1.3655
197.3050	-316.0000	-1.3597
197.4049	-316.0000	-1.3648
197.5050	-316.0000	-1.3646
197.6050	-316.0000	-1.3608
197.7051	-316.0000	-1.3577
197.8047	-316.0000	-1.3576
197.9050	-316.0000	-1.3613
198.0049	-316.0000	-1.3522
198.1050	-316.0000	-1.3629
198.2057	-316.0000	-1.3485
198.3062	-316.0000	-1.3442
198.4063	-316.0000	-1.3466
198.5056	-316.0000	-1.3519
198.6059	-316.0000	-1.3489
198.7057	-316.0000	-1.3432
198.8062	-316.0000	-1.3420
198.9064	-316.0000	-1.3402
199.0065	-316.0000	-1.3349
199.1065	-316.0000	-1.3343
199.2072	-316.0000	-1.3364
199.3076	-316.0000	-1.3389
199.4089	-316.0000	-1.3332
199.5093	-316.0000	-1.3253
199.6093	-316.0000	-1.3269
199.7094	-316.0000	-1.3282
199.8103	-316.0000	-1.3209
199.9095	-316.0000	-1.3223
200.0101	-316.0000	-1.3270
200.1102	-316.0000	-1.3217
200.2103	-316.0000	-1.3204
200.3097	-316.0000	-1.3190
200.4098	-316.0000	-1.3155
200.5095	-316.0000	-1.3143
200.6104	-316.0000	-1.3133
200.7104	-316.0000	-1.3091
200.8111	-316.0000	-1.3085
200.9123	-316.0000	-1.3041
201.0120	-316.0000	-1.3105
201.1117	-316.0000	-1.3019
201.2123	-316.0000	-1.2963
201.3131	-316.0000	-1.3059
201.4126	-316.0000	-1.3016
201.5126	-316.0000	-1.2925
201.6143	-316.0000	-1.2935
201.7140	-316.0000	-1.3004
201.8143	-316.0000	-1.3009
201.9135	-316.0000	-1.2956
202.0142	-316.0000	-1.2969
202.1141	-316.0000	-1.2851
202.2136	-316.0000	-1.2890
202.3143	-316.0000	-1.2870
202.4134	-316.0000	-1.2869
202.5137	-316.0000	-1.2798
202.6136	-316.0000	-1.2864
202.7143	-316.0000	-1.2761
202.8148	-316.0000	-1.2810
202.9147	-316.0000	-1.2766
203.0152	-316.0000	-1.2757
203.1150	-316.0000	-1.2737
203.2151	-316.0000	-1.2733
203.3151	-316.0000	-1.2639
203.4148	-316.0000	-1.2688
203.5161	-316.0000	-1.2714
203.6171	-316.0000	-1.2645
203.7174	-316.0000	-1.2663
203.8183	-316.0000	-1.2617
203.9184	-316.0000	-1.2645
204.0183	-316.0000	-1.2648
204.1186	-316.0000	-1.2633
204.2193	-316.0000	-1.2610
204.3190	-316.0000	-1.2559
204.4188	-316.0000	-1.2566
204.5191	-316.0000	-1.2458
204.6194	-316.0000	-1.2484
204.7196	-316.0000	-1.2488
204.8203	-316.0000	-1.2445
204.9204	-316.0000	-1.2442
205.0202	-316.0000	-1.2475
205.1203	-316.0000	-1.2387
205.2206	-316.0000	-1.2368
205.3205	-316.0000	-1.2406
205.4205	-316.0000	-1.2381
205.5205	-316.0000	-1.2308
205.6212	-316.0000	-1.2359
205.7215	-316.0000	-1.2334
205.8215	-316.0000	-1.2294
205.9221	-316.0000	-1.2322
206.0222	-316.0000	-1.2239
206.1228	-316.0000	-1.2259
206.2225	-316.0000	-1.2282
206.3231	-316.0000	-1.2278
206.4227	-316.0000	-1.2179
206.5228	-316.0000	-1.2200
206.6228	-316.0000	-1.2178
206.7228	-316.0000	-1.2162
206.8228	-316.0000	-1.2184
206.9228	-316.0000	-1.2147
207.0225	-316.0000	-1.2128
207.1229	-316.0000	-1.2109
207.2227	-316.0000	-1.2116
207.3244	-316.0000	-1.2050
207.4241	-316.0000	-1.2085
207.5239	-316.0000	-1.2041
207.6236	-316.0000	-1.2118
207.7244	-316.0000	-1.1981
207.8241	-316.0000	-1.2047
207.9238	-316.0000	-1.1936
208.0236	-316.0000	-1.2003
208.1243	-316.0000	-1.1940
208.2240	-316.0000	-1.1912
208.3244	-316.0000	-1.1961
208.4242	-316.0000	-1.1928
208.5241	-316.0000	-1.1910
208.6249	-316.0000	-1.1923
208.7253	-316.0000	-1.1887
208.8252	-316.0000	-1.1926
208.9258	-316.0000	-1.1902
209.0261	-316.0000	-1.1869
209.1264	-316.0000	-1.1895
209.2263	-316.0000	-1.1809
209.3267	-316.0000	-1.1784
209.4269	-316.0000	-1.1793
209.5271	-316.0000	-1.1837
209.6268	-316.0000	-1.1784
209.7273	-316.0000	-1.1791
209.8266	-316.0000	-1.1789
209.9269	-316.0000	-1.1717
210.0270	-316.0000	-1.1741
210.1270	-316.0000	-1.1700
210.2283	-316.0000	-1.1688
210.3284	-316.0000	-1.1685
210.4286	-316.0000	-1.1681
210.5294	-316.0000	-1.1634
210.6297	-316.0000	-1.1577
210.7297	-316.0000	-1.1623
210.8305	-316.0000	-1.1598
210.9301	-316.0000	-1.1564
211.0301	-316.0000	-1.1625
211.1305	-316.0000	-1.1571
211.2305	-316.0000	-1.1520
211.3307	-316.0000	-1.1531
211.4325	-316.0000	-1.1506
211.5317	-316.0000	-1.1521
211.6324	-316.0000	-1.1488
211.7317	-316.0000	-1.1510
211.8316	-316.0000	-1.1507
211.9316	-316.0000	-1.1472
212.0322	-316.0000	-1.1419
212.1326	-316.0000	-1.1401
212.2329	-316.0000	-1.1417
212.3328	-316.0000	-1.1417
212.4329	-316.0000	-1.1384
212.5333	-316.0000	-1.1363
212.6329	-316.0000	-1.1404
212.7329	-316.0000	-1.1438
212.8329	-316.0000	-1.1375
212.9329	-316.0000	-1.1362
213.0329	-316.0000	-1.1366
213.1329	-316.0000	-1.1298
213.2329	-316.0000	-1.1254
213.3329	-316.0000	-1.1296
213.4327	-316.0000	-1.1257
213.5329	-316.0000	-1.1273
213.6329	-316.0000	-1.1289
213.7329	-316.0000	-1.1330
213.8329	-316.0000	-1.1310
213.9328	-316.0000	-1.1256
214.0329	-316.0000	-1.1204
214.1327	-316.0000	-1.1201
214.2329	-316.0000	-1.1180
214.3329	-316.0000	-1.1188
214.4329	-316.0000	-1.1125
214.5329	-316.0000	-1.1186
214.6341	-316.0000	-1.1169
214.7349	-316.0000	-1.1122
214.8352	-316.0000	-1.1048
214.9352	-316.0000	-1.1121
215.0352	-316.0000	-1.1130
215.1353	-316.0000	-1.1223
215.2352	-316.0000	-1.1072
215.3353	-316.0000	-1.1077
215.4353	-316.0000	-1.1110
215.5350	-316.0000	-1.1024
215.6353	-316.0000	-1.1046
215.7352	-316.0000	-1.1121
215.8353	-316.0000	-1.1046
215.9353	-316.0000	-1.0971
216.0349	-316.0000	-1.1074
216.1353	-316.0000	-1.1002
216.2352	-316.0000	-1.0983
216.3353	-316.0000	-1.1015
216.4352	-316.0000	-1.0909
216.5353	-316.0000	-1.0962
216.6353	-316.0000	-1.0927
216.7348	-316.0000	-1.0924
216.8355	-316.0000	-1.0995
216.9348	-316.0000	-1.0920
217.0364	-316.0000	-1.0920
217.1359	-316.0000	-1.0868
217.2368	-316.0000	-1.0836
217.3379	-316.0000	-1.0841
217.4384	-316.0000	-1.0805
217.5388	-316.0000	-1.0856
217.6396	-316.0000	-1.0829
217.7397	-316.0000	-1.0842
217.8399	-316.0000	-1.0853
217.9408	-316.0000	-1.0803
218.0412	-316.0000	-1.0807
218.1422	-316.0000	-1.0833
218.2424	-316.0000	-1.0814
218.3424	-316.0000	-1.0790
218.4431	-316.0000	-1.0811
218.5433	-316.0000	-1.0713
218.6430	-316.0000	-1.0733
218.7436	-316.0000	-1.0712
218.8430	-316.0000	-1.0733
218.9429	-316.0000	-1.0783
219.0430	-316.0000	-1.0694
219.1430	-316.0000	-1.0691
219.2429	-316.0000	-1.0695
219.3429	-316.0000	-1.0683
219.4436	-316.0000	-1.0615
219.5429	-316.0000	-1.0733
219.6436	-316.0000	-1.0704
219.7429	-316.0000	-1.0603
219.8429	-316.0000	-1.0678
219.9429	-316.0000	-1.0616
220.0429	-316.0000	-1.0611
220.1430	-316.0000	-1.0657
220.2429	-316.0000	-1.0581
220.3429	-316.0000	-1.0637
220.4429	-316.0000	-1.0547
220.5428	-316.0000	-1.0618
220.6429	-316.0000	-1.0639
220.7428	-316.0000	-1.0665
220.8429	-316.0000	-1.0578
220.9431	-316.0000	-1.0543
221.0429	-316.0000	-1.0602
221.1430	-316.0000	-1.0608
221.2430	-316.0000	-1.0571
221.3430	-316.0000	-1.0541
221.4430	-316.0000	-1.0480
221.5430	-316.0000	-1.0527
221.6430	-316.0000	-1.0557
221.7445	-316.0000	-1.0503
221.8446	-316.0000	-1.0475
221.9446	-316.0000	-1.0490
222.0445	-316.0000	-1.0459
222.1439	-316.0000	-1.0508
222.2446	-316.0000	-1.0462
222.3444	-316.0000	-1.0409
222.4450	-316.0000	-1.0451
222.5452	-316.0000	-1.0463
222.6453	-316.0000	-1.0481
222.7451	-316.0000	-1.0406
222.8451	-316.0000	-1.0457
222.9451	-316.0000	-1.0396
223.0451	-316.0000	-1.0317
223.1452	-316.0000	-1.0363
223.2454	-316.0000	-1.0350
223.3454	-316.0000	-1.0387
223.4454	-316.0000	-1.0344
223.5450	-316.0000	-1.0349
223.6454	-316.0000	-1.0318
223.7453	-316.0000	-1.0358
223.8453	-316.0000	-1.0325
223.9454	-316.0000	-1.0321
224.0452	-316.0000	-1.0325
224.1448	-316.0000	-1.0343
224.2452	-316.0000	-1.0274
224.3451	-316.0000	-1.0284
224.4454	-316.0000	-1.0321
224.5454	-316.0000	-1.0304
224.6451	-316.0000	-1.0292
224.7455	-316.0000	-1.0249
224.8455	-316.0000	-1.0256
224.9455	-316.0000	-1.0249
225.0454	-316.0000	-1.0294
225.1457	-316.0000	-1.0263
225.2454	-316.0000	-1.0229
225.3455	-316.0000	-1.0198
225.4455	-316.0000	-1.0210
225.5455	-316.0000	-1.0178
225.6460	-316.0000	-1.0252
225.7466	-316.0000	-1.0163
225.8468	-316.0000	-1.0149
225.9464	-316.0000	-1.0191
226.0469	-316.0000	-1.0172
226.1471	-316.0000	-1.0142
226.2472	-316.0000	-1.0257
226.3470	-316.0000	-1.0121
226.4472	-316.0000	-1.0107
226.5473	-316.0000	-1.0115
226.6481	-316.0000	-1.0074
226.7482	-316.0000	-1.0084
226.8483	-316.0000	-1.0040
226.9482	-316.0000	-1.0130
227.0480	-316.0000	-1.0040
227.1487	-316.0000	-0.9995
227.2488	-316.0000	-1.0081
227.3488	-316.0000	-1.0126
227.4479	-316.0000	-1.0004
227.5485	-316.0000	-1.0145
227.6481	-316.0000	-1.0055
227.7479	-316.0000	-1.0105
227.8491	-316.0000	-1.0132
227.9492	-316.0000	-1.0020
228.0491	-316.0000	-1.0055
228.1492	-316.0000	-1.0046
228.2494	-316.0000	-1.0013
228.3498	-316.0000	-1.0006
228.4505	-316.0000	-0.9992
228.5508	-316.0000	-1.0019
228.6508	-316.0000	-1.0009
228.7509	-316.0000	-0.9992
228.8519	-316.0000	-0.9963
228.9531	-316.0000	-0.9954
229.0532	-316.0000	-0.9924
229.1531	-316.0000	-1.0049
229.2545	-316.0000	-0.9958
229.3545	-316.0000	-0.9907
229.4541	-316.0000	-0.9935
229.5545	-316.0000	-0.9929
229.6541	-316.0000	-0.9911
229.7539	-316.0000	-0.9967
229.8549	-316.0000	-0.9906
229.9556	-316.0000	-0.9929
230.0556	-316.0000	-0.9839
230.1553	-316.0000	-0.9951
230.2556	-316.0000	-0.9910
230.3552	-316.0000	-0.9844
230.4556	-316.0000	-0.9841
230.5556	-316.0000	-0.9866
230.6552	-316.0000	-0.9879
230.7554	-316.0000	-0.9865
230.8555	-316.0000	-0.9913
230.9556	-316.0000	-0.9925
231.0556	-316.0000	-0.9835
231.1556	-316.0000	-0.9829
231.2552	-316.0000	-0.9905
231.3556	-316.0000	-0.9784
231.4555	-316.0000	-0.9822
231.5555	-316.0000	-0.9779
231.6556	-316.0000	-0.9836
231.7556	-316.0000	-0.9852
231.8556	-316.0000	-0.9813
231.9556	-316.0000	-0.9764
232.0553	-316.0000	-0.9793
232.1554	-316.0000	-0.9821
232.2565	-316.0000	-0.9759
232.3567	-316.0000	-0.9783
232.4568	-316.0000	-0.9702
232.5564	-316.0000	-0.9834
232.6570	-316.0000	-0.9756
232.7569	-316.0000	-0.9757
232.8577	-316.0000	-0.9774
232.9579	-316.0000	-0.9697
233.0581	-316.0000	-0.9809
233.1582	-316.0000	-0.9736
233.2586	-316.0000	-0.9757
233.3590	-316.0000	-0.9723
233.4590	-316.0000	-0.9755
233.5591	-316.0000	-0.9736
233.6590	-316.0000	-0.9670
233.7591	-316.0000	-0.9712
233.8598	-316.0000	-0.9656
233.9601	-316.0000	-0.9687
234.0603	-316.0000	-0.9663
234.1605	-316.0000	-0.9599
234.2608	-316.0000	-0.9645
234.3610	-316.0000	-0.9565
234.4619	-316.0000	-0.9604
234.5610	-316.0000	-0.9572
234.6614	-316.0000	-0.9613
234.7612	-316.0000	-0.9635
234.8610	-316.0000	-0.9584
234.9612	-316.0000	-0.9576
235.0611	-316.0000	-0.9574
235.1614	-316.0000	-0.9553
235.2612	-316.0000	-0.9586
235.3610	-316.0000	-0.9568
235.4610	-316.0000	-0.9572
235.5611	-316.0000	-0.9549
235.6613	-316.0000	-0.9519
235.7621	-316.0000	-0.9539
235.8625	-316.0000	-0.9465
235.9625	-316.0000	-0.9407
236.0625	-316.0000	-0.9473
236.1622	-316.0000	-0.9436
236.2637	-316.0000	-0.9545
236.3633	-316.0000	-0.9432
236.4633	-316.0000	-0.9467
236.5633	-316.0000	-0.9530
236.6633	-316.0000	-0.9398
236.7632	-316.0000	-0.9555
236.8633	-316.0000	-0.9458
236.9633	-316.0000	-0.9523
237.0633	-316.0000	-0.9452
237.1633	-316.0000	-0.9495
237.2633	-316.0000	-0.9475
237.3633	-316.0000	-0.9447
237.4636	-316.0000	-0.9425
237.5633	-316.0000	-0.9444
237.6633	-316.0000	-0.9438
237.7633	-316.0000	-0.9344
237.8633	-316.0000	-0.9309
237.9633	-316.0000	-0.9446
238.0631	-316.0000	-0.9336
238.1636	-316.0000	-0.9326
238.2641	-316.0000	-0.9342
238.3649	-316.0000	-0.9397
238.4647	-316.0000	-0.9404
238.5655	-316.0000	-0.9400
238.6657	-316.0000	-0.9350
238.7657	-316.0000	-0.9412
238.8657	-316.0000	-0.9313
238.9654	-316.0000	-0.9299
239.0656	-316.0000	-0.9350
239.1657	-316.0000	-0.9421
239.2655	-316.0000	-0.9422
239.3658	-316.0000	-0.9320
239.4653	-316.0000	-0.9317
239.5657	-316.0000	-0.9389
239.6657	-316.0000	-0.9317
239.7657	-316.0000	-0.9326
239.8657	-316.0000	-0.9369
239.9651	-316.0000	-0.9311
240.0658	-316.0000	-0.9322
240.1656	-316.0000	-0.9300
240.2658	-316.0000	-0.9320
240.3656	-316.0000	-0.9298
240.4663	-316.0000	-0.9320
240.5670	-316.0000	-0.9413
240.6662	-316.0000	-0.9339
240.7669	-316.0000	-0.9254
240.8664	-316.0000	-0.9231
240.9669	-316.0000	-0.9291
241.0662	-316.0000	-0.9202
241.1662	-316.0000	-0.9356
241.2669	-316.0000	-0.9273
241.3663	-316.0000	-0.9312
241.4670	-316.0000	-0.9247
241.5668	-316.0000	-0.9254
241.6664	-316.0000	-0.9219
241.7669	-316.0000	-0.9250
241.8662	-316.0000	-0.9299
241.9670	-316.0000	-0.9216
242.0666	-316.0000	-0.9107
242.1672	-316.0000	-0.9289
242.2672	-316.0000	-0.9170
242.3673	-316.0000	-0.9230
242.4682	-316.0000	-0.9170
242.5682	-316.0000	-0.9176
242.6682	-316.0000	-0.9174
242.7681	-316.0000	-0.9151
242.8684	-316.0000	-0.9164
242.9686	-316.0000	-0.9085
243.0691	-316.0000	-0.9215
243.1693	-316.0000	-0.9159
243.2710	-316.0000	-0.9166
243.3720	-316.0000	-0.9206
243.4717	-316.0000	-0.9165
243.5717	-316.0000	-0.9115
243.6712	-316.0000	-0.9163
243.7717	-316.0000	-0.9184
243.8715	-316.0000	-0.9192
243.9722	-316.0000	-0.9116
244.0721	-316.0000	-0.9115
244.1733	-316.0000	-0.9161
244.2746	-316.0000	-0.9114
244.3742	-316.0000	-0.9137
244.4743	-316.0000	-0.9094
244.5750	-316.0000	-0.9114
244.6750	-316.0000	-0.9108
244.7751	-316.0000	-0.9123
244.8757	-316.0000	-0.9121
244.9755	-316.0000	-0.9155
245.0759	-316.0000	-0.9101
245.1756	-316.0000	-0.9051
245.2758	-316.0000	-0.9162
245.3758	-316.0000	-0.9102
245.4759	-316.0000	-0.9063
245.5758	-316.0000	-0.9094
245.6757	-316.0000	-0.9096
245.7758	-316.0000	-0.9051
245.8757	-316.0000	-0.9054
245.9759	-316.0000	-0.9119
246.0756	-316.0000	-0.9010
246.1755	-316.0000	-0.9035
246.2759	-316.0000	-0.9039
246.3758	-316.0000	-0.9021
246.4758	-316.0000	-0.9057
246.5759	-316.0000	-0.9018
246.6758	-316.0000	-0.9007
246.7756	-316.0000	-0.9009
246.8758	-316.0000	-0.9035
246.9759	-316.0000	-0.8996
247.0759	-316.0000	-0.8960
247.1758	-316.0000	-0.9044
247.2759	-316.0000	-0.9031
247.3758	-316.0000	-0.9010
247.4759	-316.0000	-0.9077
247.5758	-316.0000	-0.9003
247.6759	-316.0000	-0.8989
247.7756	-316.0000	-0.8929
247.8757	-316.0000	-0.9019
247.9757	-316.0000	-0.9040
248.0757	-316.0000	-0.9063
248.1758	-316.0000	-0.9050
248.2759	-316.0000	-0.8992
248.3755	-316.0000	-0.8941
248.4759	-316.0000	-0.9026
248.5757	-316.0000	-0.9009
248.6754	-316.0000	-0.8999
248.7765	-316.0000	-0.9010
248.8767	-316.0000	-0.8943
248.9773	-316.0000	-0.8938
249.0780	-316.0000	-0.8951
249.1774	-316.0000	-0.8986
249.2772	-316.0000	-0.8928
249.3777	-316.0000	-0.8973
249.4778	-316.0000	-0.8972
249.5782	-316.0000	-0.8980
249.6774	-316.0000	-0.8945
249.7775	-316.0000	-0.9019
249.8780	-316.0000	-0.8873
249.9779	-316.0000	-0.8928
250.0773	-316.0000	-0.8926
250.1774	-316.0000	-0.8950
250.2780	-316.0000	-0.8860
250.3782	-316.0000	-0.8910
250.4783	-316.0000	-0.8928
250.5788	-316.0000	-0.8931
250.6788	-316.0000	-0.8878
250.7792	-316.0000	-0.8938
250.8784	-316.0000	-0.8894
250.9791	-316.0000	-0.8932
251.0792	-316.0000	-0.9023
251.1793	-316.0000	-0.8893
251.2795	-316.0000	-0.8887
251.3807	-316.0000	-0.8896
251.4819	-316.0000	-0.8797
251.5816	-316.0000	-0.8816
251.6813	-316.0000	-0.8825
251.7821	-316.0000	-0.8824
251.8818	-316.0000	-0.8848
251.9815	-316.0000	-0.8875
252.0818	-316.0000	-0.8832
252.1818	-316.0000	-0.8865
252.2818	-316.0000	-0.8849
252.3812	-316.0000	-0.8830
252.4821	-316.0000	-0.8889
252.5821	-316.0000	-0.8832
252.6822	-316.0000	-0.8834
252.7823	-316.0000	-0.8845
252.8833	-316.0000	-0.8878
252.9842	-316.0000	-0.8848
253.0836	-316.0000	-0.8781
253.1836	-316.0000	-0.8794
253.2835	-316.0000	-0.8713
253.3833	-316.0000	-0.8772
253.4842	-316.0000	-0.8809
253.5841	-316.0000	-0.8821
253.6835	-316.0000	-0.8785
253.7836	-316.0000	-0.8780
253.8848	-316.0000	-0.8860
253.9845	-316.0000	-0.8746
254.0860	-316.0000	-0.8798
254.1856	-316.0000	-0.8813
254.2865	-316.0000	-0.8816
254.3880	-316.0000	-0.8808
254.4883	-316.0000	-0.8765
254.5892	-316.0000	-0.8805
254.6895	-316.0000	-0.8723
254.7897	-316.0000	-0.8777
254.8900	-316.0000	-0.8775
254.9903	-316.0000	-0.8809
255.0906	-316.0000	-0.8780
255.1905	-316.0000	-0.8741
255.2913	-316.0000	-0.8769
255.3913	-316.0000	-0.8708
255.4912	-316.0000	-0.8829
255.5914	-316.0000	-0.8778
255.6915	-316.0000	-0.8756
255.7915	-316.0000	-0.8690
255.8914	-316.0000	-0.8782
255.9914	-316.0000	-0.8745
256.0913	-316.0000	-0.8682
256.1913	-316.0000	-0.8748
256.2913	-316.0000	-0.8722
256.3926	-316.0000	-0.8757
256.4928	-316.0000	-0.8726
256.5935	-316.0000	-0.8761
256.6943	-316.0000	-0.8614
256.7946	-316.0000	-0.8731
256.8965	-316.0000	-0.8656
256.9970	-316.0000	-0.8748
257.0970	-316.0000	-0.8686
257.1972	-316.0000	-0.8700
257.2966	-316.0000	-0.8716
257.3968	-316.0000	-0.8631
257.4971	-316.0000	-0.8720
257.5970	-316.0000	-0.8629
257.6970	-316.0000	-0.8639
257.7971	-316.0000	-0.8694
257.8974	-316.0000	-0.8709
257.9975	-316.0000	-0.8683
258.0975	-316.0000	-0.8688
258.1974	-316.0000	-0.8645
258.2976	-316.0000	-0.8652
258.3976	-316.0000	-0.8686
258.4980	-316.0000	-0.8614
258.5980	-316.0000	-0.8732
258.6977	-316.0000	-0.8699
258.7980	-316.0000	-0.8731
258.8983	-316.0000	-0.8682
258.9983	-316.0000	-0.8639
259.0982	-316.0000	-0.8691
259.1984	-316.0000	-0.8590
259.2991	-316.0000	-0.8685
259.3988	-316.0000	-0.8621
259.4990	-316.0000	-0.8720
259.5990	-316.0000	-0.8619
259.6992	-316.0000	-0.8657
259.7986	-316.0000	-0.8566
259.9001	-316.0000	-0.8652
260.0006	-316.0000	-0.8653
260.1005	-316.0000	-0.8652
260.2005	-316.0000	-0.8579
260.3013	-316.0000	-0.8547
260.4011	-316.0000	-0.8528
260.5010	-316.0000	-0.8567
260.6019	-316.0000	-0.8563
260.7017	-316.0000	-0.8623
260.8023	-316.0000	-0.8556
260.9022	-316.0000	-0.8537
261.0022	-316.0000	-0.8544
261.1023	-316.0000	-0.8623
261.2025	-316.0000	-0.8562
261.3031	-316.0000	-0.8601
261.4031	-316.0000	-0.8589
261.5031	-316.0000	-0.8555
261.6031	-316.0000	-0.8617
261.7030	-316.0000	-0.8641
261.8026	-316.0000	-0.8554
261.9039	-316.0000	-0.8580
262.0042	-316.0000	-0.8607
262.1039	-316.0000	-0.8588
262.2037	-316.0000	-0.8579
262.3037	-316.0000	-0.8565
262.4037	-316.0000	-0.8546
262.5037	-316.0000	-0.8544
262.6037	-316.0000	-0.8581
262.7037	-316.0000	-0.8680
262.8037	-316.0000	-0.8486
262.9037	-316.0000	-0.8603
263.0037	-316.0000	-0.8515
263.1036	-316.0000	-0.8460
263.2037	-316.0000	-0.8446
263.3050	-316.0000	-0.8542
263.4058	-316.0000	-0.8595
263.5057	-316.0000	-0.8635
263.6060	-316.0000	-0.8532
263.7062	-316.0000	-0.8509
263.8055	-316.0000	-0.8490
263.9062	-316.0000	-0.8450
264.0061	-316.0000	-0.8491
264.1062	-316.0000	-0.8518
264.2060	-316.0000	-0.8514
264.3061	-316.0000	-0.8457
264.4061	-316.0000	-0.8518
264.5059	-316.0000	-0.8514
264.6057	-316.0000	-0.8552
264.7055	-316.0000	-0.8531
264.8059	-316.0000	-0.8433
264.9062	-316.0000	-0.8504
265.0058	-316.0000	-0.8479
265.1061	-316.0000	-0.8491
265.2060	-316.0000	-0.8563
265.3062	-316.0000	-0.8476
265.4070	-316.0000	-0.8530
265.5069	-316.0000	-0.8515
265.6074	-316.0000	-0.8544
265.7065	-316.0000	-0.8493
265.8075	-316.0000	-0.8511
265.9075	-316.0000	-0.8513
266.0078	-316.0000	-0.8549
266.1081	-316.0000	-0.8479
266.2079	-316.0000	-0.8479
266.3082	-316.0000	-0.8398
266.4081	-316.0000	-0.8453
266.5085	-316.0000	-0.8451
266.6095	-316.0000	-0.8426
266.7096	-316.0000	-0.8450
266.8097	-316.0000	-0.8454
266.9100	-316.0000	-0.8500
267.0102	-316.0000	-0.8459
267.1106	-316.0000	-0.8410
267.2111	-316.0000	-0.8462
267.3105	-316.0000	-0.8412
267.4108	-316.0000	-0.8556
267.5106	-316.0000	-0.8497
267.6111	-316.0000	-0.8460
267.7112	-316.0000	-0.8446
267.8112	-316.0000	-0.8404
267.9114	-316.0000	-0.8433
268.0107	-316.0000	-0.8409
268.1108	-316.0000	-0.8439
268.2113	-316.0000	-0.8465
268.3124	-316.0000	-0.8407
268.4120	-316.0000	-0.8434
268.5133	-316.0000	-0.8392
268.6131	-316.0000	-0.8347
268.7128	-316.0000	-0.8365
268.8126	-316.0000	-0.8364
268.9133	-316.0000	-0.8356
269.0131	-316.0000	-0.8367
269.1128	-316.0000	-0.8373
269.2145	-316.0000	-0.8389
269.3142	-316.0000	-0.8377
269.4140	-316.0000	-0.8341
269.5137	-316.0000	-0.8358
269.6154	-316.0000	-0.8456
269.7155	-316.0000	-0.8467
269.8163	-316.0000	-0.8387
269.9175	-316.0000	-0.8340
270.0173	-316.0000	-0.8352
270.1175	-316.0000	-0.8438
270.2171	-316.0000	-0.8381
270.3177	-316.0000	-0.8403
270.4185	-316.0000	-0.8352
270.5180	-316.0000	-0.8371
270.6190	-316.0000	-0.8351
270.7193	-316.0000	-0.8282
270.8196	-316.0000	-0.8356
270.9197	-316.0000	-0.8313
271.0201	-316.0000	-0.8361
271.1206	-316.0000	-0.8406
271.2201	-316.0000	-0.8387
271.3207	-316.0000	-0.8390
271.4209	-316.0000	-0.8377
271.5211	-316.0000	-0.8321
271.6223	-316.0000	-0.8364
271.7221	-316.0000	-0.8375
271.8216	-316.0000	-0.8363
271.9217	-316.0000	-0.8311
272.0228	-316.0000	-0.8354
272.1232	-316.0000	-0.8337
272.2232	-316.0000	-0.8361
272.3234	-316.0000	-0.8316
272.4235	-316.0000	-0.8294
272.5237	-316.0000	-0.8290
272.6239	-316.0000	-0.8312
272.7239	-316.0000	-0.8312
272.8239	-316.0000	-0.8358
272.9239	-316.0000	-0.8279
273.0239	-316.0000	-0.8321
273.1239	-316.0000	-0.8302
273.2247	-316.0000	-0.8234
273.3258	-316.0000	-0.8292
273.4260	-316.0000	-0.8325
273.5263	-316.0000	-0.8311
273.6262	-316.0000	-0.8347
273.7263	-316.0000	-0.8245
273.8263	-316.0000	-0.8280
273.9260	-316.0000	-0.8379
274.0263	-316.0000	-0.8297
274.1260	-316.0000	-0.8282
274.2262	-316.0000	-0.8267
274.3262	-316.0000	-0.8218
274.4263	-316.0000	-0.8295
274.5263	-316.0000	-0.8227
274.6259	-316.0000	-0.8276
274.7263	-316.0000	-0.8186
274.8262	-316.0000	-0.8263
274.9263	-316.0000	-0.8253
275.0263	-316.0000	-0.8268
275.1260	-316.0000	-0.8299
275.2258	-316.0000	-0.8246
275.3258	-316.0000	-0.8237
275.4262	-316.0000	-0.8273
275.5263	-316.0000	-0.8341
275.6263	-316.0000	-0.8299
275.7263	-316.0000	-0.8284
275.8262	-316.0000	-0.8192
275.9264	-316.0000	-0.8245
276.0262	-316.0000	-0.8250
276.1269	-316.0000	-0.8239
276.2277	-316.0000	-0.8213
276.3279	-316.0000	-0.8285
276.4280	-316.0000	-0.8247
276.5282	-316.0000	-0.8235
276.6277	-316.0000	-0.8145
276.7284	-316.0000	-0.8250
276.8287	-316.0000	-0.8223
276.9296	-316.0000	-0.8210
277.0297	-316.0000	-0.8150
277.1306	-316.0000	-0.8187
277.2315	-316.0000	-0.8276
277.3316	-316.0000	-0.8176
277.4318	-316.0000	-0.8211
277.5317	-316.0000	-0.8140
277.6327	-316.0000	-0.8214
277.7339	-316.0000	-0.8191
277.8339	-316.0000	-0.8214
277.9340	-316.0000	-0.8187
278.0339	-316.0000	-0.8148
278.1344	-316.0000	-0.8128
278.2339	-316.0000	-0.8197
278.3340	-316.0000	-0.8214
278.4339	-316.0000	-0.8149
278.5339	-316.0000	-0.8197
278.6339	-316.0000	-0.8104
278.7339	-316.0000	-0.8142
278.8346	-316.0000	-0.8205
278.9340	-316.0000	-0.8204
279.0340	-316.0000	-0.8224
279.1340	-316.0000	-0.8149
279.2340	-316.0000	-0.8205
279.3340	-316.0000	-0.8180
279.4340	-316.0000	-0.8178
279.5346	-316.0000	-0.8169
279.6340	-316.0000	-0.8184
279.7340	-316.0000	-0.8204
279.8347	-316.0000	-0.8196
279.9340	-316.0000	-0.8192
280.0340	-316.0000	-0.8164
280.1340	-316.0000	-0.8150
280.2340	-316.0000	-0.8155
280.3344	-316.0000	-0.8175
280.4344	-316.0000	-0.8211
280.5341	-316.0000	-0.8153
280.6343	-316.0000	-0.8076
280.7340	-316.0000	-0.8132
280.8340	-316.0000	-0.8159
280.9340	-316.0000	-0.8152
281.0347	-316.0000	-0.8095
281.1340	-316.0000	-0.8167
281.2344	-316.0000	-0.8113
281.3340	-316.0000	-0.8127
281.4341	-316.0000	-0.8110
281.5344	-316.0000	-0.7991
281.6340	-316.0000	-0.8132
281.7340	-316.0000	-0.8129
281.8340	-316.0000	-0.7995
281.9340	-316.0000	-0.8079
282.0340	-316.0000	-0.8028
282.1341	-316.0000	-0.8104
282.2347	-316.0000	-0.8077
282.3341	-316.0000	-0.8029
282.4340	-316.0000	-0.8064
282.5341	-316.0000	-0.8128
282.6340	-316.0000	-0.8050
282.7341	-316.0000	-0.7996
282.8340	-316.0000	-0.8048
282.9341	-316.0000	-0.8033
283.0341	-316.0000	-0.8085
283.1340	-316.0000	-0.8068
283.2340	-316.0000	-0.8079
283.3341	-316.0000	-0.8102
283.4341	-316.0000	-0.8082
283.5341	-316.0000	-0.8016
283.6341	-316.0000	-0.8071
283.7339	-316.0000	-0.8061
283.8341	-316.0000	-0.8065
283.9341	-316.0000	-0.8069
284.0341	-316.0000	-0.7995
284.1349	-316.0000	-0.8016
284.2359	-316.0000	-0.8045
284.3365	-316.0000	-0.8034
284.4372	-316.0000	-0.8031
284.5377	-316.0000	-0.7998
284.6375	-316.0000	-0.8038
284.7377	-316.0000	-0.7991
284.8372	-316.0000	-0.7961
284.9372	-316.0000	-0.8068
285.0376	-316.0000	-0.8021
285.1377	-316.0000	-0.7985
285.2380	-316.0000	-0.7979
285.3384	-316.0000	-0.8058
285.4385	-316.0000	-0.8031
285.5389	-316.0000	-0.7950
285.6390	-316.0000	-0.8006
285.7396	-316.0000	-0.7937
285.8391	-316.0000	-0.7942
285.9392	-316.0000	-0.8030
286.0400	-316.0000	-0.7956
286.1400	-316.0000	-0.7996
286.2402	-316.0000	-0.7998
286.3404	-316.0000	-0.7984
286.4405	-316.0000	-0.7999
286.5410	-316.0000	-0.8016
286.6415	-316.0000	-0.8013
286.7418	-316.0000	-0.7950
286.8415	-316.0000	-0.8003
286.9428	-316.0000	-0.7933
287.0422	-316.0000	-0.8035
287.1423	-316.0000	-0.7971
287.2423	-316.0000	-0.7946
287.3422	-316.0000	-0.7975
287.4420	-316.0000	-0.7910
287.5427	-316.0000	-0.7949
287.6427	-316.0000	-0.7970
287.7423	-316.0000	-0.7941
287.8429	-316.0000	-0.7937
287.9428	-316.0000	-0.7987
288.0429	-316.0000	-0.7980
288.1431	-316.0000	-0.7950
288.2431	-316.0000	-0.7939
288.3434	-316.0000	-0.7935
288.4447	-316.0000	-0.7918
288.5441	-316.0000	-0.7940
288.6441	-316.0000	-0.7942
288.7440	-316.0000	-0.7886
288.8441	-316.0000	-0.7988
288.9441	-316.0000	-0.7936
289.0442	-316.0000	-0.7914
289.1442	-316.0000	-0.7938
289.2441	-316.0000	-0.7941
289.3442	-316.0000	-0.7936
289.4442	-316.0000	-0.7971
289.5442	-316.0000	-0.7919
289.6441	-316.0000	-0.7876
289.7442	-316.0000	-0.7918
289.8442	-316.0000	-0.7891
289.9441	-316.0000	-0.7934
290.0442	-316.0000	-0.7918
290.1442	-316.0000	-0.7868
290.2443	-316.0000	-0.7889
290.3442	-316.0000	-0.7872
290.4447	-316.0000	-0.7893
290.5442	-316.0000	-0.7920
290.6442	-316.0000	-0.7930
290.7443	-316.0000	-0.7897
290.8442	-316.0000	-0.7880
290.9440	-316.0000	-0.7827
291.0445	-316.0000	-0.7866
291.1443	-316.0000	-0.7905
291.2448	-316.0000	-0.7808
291.3442	-316.0000	-0.7886
291.4442	-316.0000	-0.7950
291.5442	-316.0000	-0.7937
291.6442	-316.0000	-0.7906
291.7442	-316.0000	-0.7841
291.8442	-316.0000	-0.7933
291.9442	-316.0000	-0.7856
292.0442	-316.0000	-0.7860
292.1442	-316.0000	-0.7904
292.2442	-316.0000	-0.7856
292.3448	-316.0000	-0.7875
292.4442	-316.0000	-0.7881
292.5449	-316.0000	-0.7861
292.6442	-316.0000	-0.7761
292.7442	-316.0000	-0.7828
292.8440	-316.0000	-0.7874
292.9442	-316.0000	-0.7836
293.0441	-316.0000	-0.7878
293.1442	-316.0000	-0.7841
293.2442	-316.0000	-0.7824
293.3442	-316.0000	-0.7843
293.4442	-316.0000	-0.7856
293.5442	-316.0000	-0.7879
293.6442	-316.0000	-0.7833
293.7448	-316.0000	-0.7841
293.8442	-316.0000	-0.7808
293.9442	-316.0000	-0.7831
294.0442	-316.0000	-0.7835
294.1442	-316.0000	-0.7780
294.2441	-316.0000	-0.7810
294.3443	-316.0000	-0.7729
294.4443	-316.0000	-0.7808
294.5443	-316.0000	-0.7799
294.6442	-316.0000	-0.7848
294.7441	-316.0000	-0.7860
294.8443	-316.0000	-0.7798
294.9457	-316.0000	-0.7794
295.0468	-316.0000	-0.7754
295.1464	-316.0000	-0.7861
295.2466	-316.0000	-0.7759
295.3467	-316.0000	-0.7864
295.4466	-316.0000	-0.7825
295.5467	-316.0000	-0.7888
295.6467	-316.0000	-0.7808
295.7467	-316.0000	-0.7716
295.8467	-316.0000	-0.7800
295.9464	-316.0000	-0.7811
296.0467	-316.0000	-0.7813
296.1465	-316.0000	-0.7769
296.2463	-316.0000	-0.7735
296.3461	-316.0000	-0.7812
296.4468	-316.0000	-0.7731
296.5466	-316.0000	-0.7765
296.6471	-316.0000	-0.7804
296.7472	-316.0000	-0.7712
296.8479	-316.0000	-0.7766
296.9486	-316.0000	-0.7751
297.0491	-316.0000	-0.7851
297.1499	-316.0000	-0.7749
297.2499	-316.0000	-0.7735
297.3500	-316.0000	-0.7771
297.4509	-316.0000	-0.7665
297.5507	-316.0000	-0.7730
297.6501	-316.0000	-0.7715
297.7501	-316.0000	-0.7754
297.8505	-316.0000	-0.7815
297.9506	-316.0000	-0.7753
298.0507	-316.0000	-0.7760
298.1512	-316.0000	-0.7755
298.2512	-316.0000	-0.7699
298.3517	-316.0000	-0.7746
298.4519	-316.0000	-0.7768
298.5520	-316.0000	-0.7728
298.6533	-316.0000	-0.7674
298.7537	-316.0000	-0.7707
298.8538	-316.0000	-0.7722
298.9532	-316.0000	-0.7771
299.0542	-316.0000	-0.7816
299.1544	-316.0000	-0.7837
299.2541	-316.0000	-0.7760
299.3543	-316.0000	-0.7632
299.4548	-316.0000	-0.7792
299.5543	-316.0000	-0.7658
299.6543	-316.0000	-0.7716
299.7543	-316.0000	-0.7717
299.8543	-316.0000	-0.7689
299.9543	-316.0000	-0.7707
300.0542	-316.0000	-0.7764
300.1556	-316.0000	-0.7735
300.2563	-316.0000	-0.7707
300.3566	-316.0000	-0.7686
300.4567	-316.0000	-0.7678
300.5572	-316.0000	-0.7687
300.6580	-316.0000	-0.7694
300.7575	-316.0000	-0.7634
300.8580	-316.0000	-0.7686
300.9571	-316.0000	-0.7632
301.0585	-316.0000	-0.7687
301.1587	-316.0000	-0.7688
301.2591	-316.0000	-0.7682
301.3592	-316.0000	-0.7676
301.4602	-316.0000	-0.7657
301.5610	-316.0000	-0.7653
301.6620	-316.0000	-0.7591
301.7618	-316.0000	-0.7715
301.8615	-316.0000	-0.7670
301.9616	-316.0000	-0.7687
302.0618	-316.0000	-0.7658
302.1620	-316.0000	-0.7663
302.2621	-316.0000	-0.7627
302.3631	-316.0000	-0.7633
302.4632	-316.0000	-0.7681
302.5631	-316.0000	-0.7639
302.6631	-316.0000	-0.7656
302.7631	-316.0000	-0.7662
302.8642	-316.0000	-0.7664
302.9644	-316.0000	-0.7703
303.0644	-316.0000	-0.7656
303.1644	-316.0000	-0.7626
303.2644	-316.0000	-0.7619
303.3644	-316.0000	-0.7654
303.4644	-316.0000	-0.7620
303.5644	-316.0000	-0.7658
303.6644	-316.0000	-0.7633
303.7644	-316.0000	-0.7591
303.8658	-316.0000	-0.7631
303.9660	-316.0000	-0.7637
304.0665	-316.0000	-0.7610
304.1667	-316.0000	-0.7675
304.2662	-316.0000	-0.7568
304.3669	-316.0000	-0.7571
304.4667	-316.0000	-0.7535
304.5668	-316.0000	-0.7670
304.6666	-316.0000	-0.7538
304.7668	-316.0000	-0.7600
304.8665	-316.0000	-0.7548
304.9667	-316.0000	-0.7635
305.0668	-316.0000	-0.7586
305.1668	-316.0000	-0.7615
305.2668	-316.0000	-0.7603
305.3668	-316.0000	-0.7609
305.4667	-316.0000	-0.7566
305.5669	-316.0000	-0.7592
305.6667	-316.0000	-0.7498
305.7668	-316.0000	-0.7615
305.8662	-316.0000	-0.7652
305.9669	-316.0000	-0.7542
306.0669	-316.0000	-0.7592
306.1674	-316.0000	-0.7591
306.2681	-316.0000	-0.7544
306.3682	-316.0000	-0.7549
306.4693	-316.0000	-0.7558
306.5692	-316.0000	-0.7630
306.6698	-316.0000	-0.7543
306.7697	-316.0000	-0.7607
306.8696	-316.0000	-0.7547
306.9693	-316.0000	-0.7493
307.0711	-316.0000	-0.7521
307.1708	-316.0000	-0.7500
307.2706	-316.0000	-0.7585
307.3703	-316.0000	-0.7534
307.4710	-316.0000	-0.7564
307.5720	-316.0000	-0.7524
307.6718	-316.0000	-0.7629
307.7714	-316.0000	-0.7546
307.8713	-316.0000	-0.7517
307.9722	-316.0000	-0.7544
308.0722	-316.0000	-0.7561
308.1718	-316.0000	-0.7633
308.2717	-316.0000	-0.7593
308.3718	-316.0000	-0.7517
308.4722	-316.0000	-0.7538
308.5722	-316.0000	-0.7507
308.6733	-316.0000	-0.7489
308.7744	-316.0000	-0.7546
308.8745	-316.0000	-0.7612
308.9744	-316.0000	-0.7475
309.0746	-316.0000	-0.7547
309.1745	-316.0000	-0.7524
309.2745	-316.0000	-0.7498
309.3745	-316.0000	-0.7518
309.4752	-316.0000	-0.7534
309.5745	-316.0000	-0.7549
309.6745	-316.0000	-0.7568
309.7745	-316.0000	-0.7510
309.8746	-316.0000	-0.7507
309.9745	-316.0000	-0.7465
310.0745	-316.0000	-0.7515
310.1745	-316.0000	-0.7489
310.2745	-316.0000	-0.7508
310.3745	-316.0000	-0.7454
310.4746	-316.0000	-0.7519
310.5746	-316.0000	-0.7500
310.6746	-316.0000	-0.7503
310.7745	-316.0000	-0.7481
310.8745	-316.0000	-0.7501
310.9745	-316.0000	-0.7468
311.0746	-316.0000	-0.7514
311.1753	-316.0000	-0.7454
311.2760	-316.0000	-0.7490
311.3754	-316.0000	-0.7490
311.4762	-316.0000	-0.7525
311.5759	-316.0000	-0.7473
311.6755	-316.0000	-0.7476
311.7762	-316.0000	-0.7497
311.8760	-316.0000	-0.7478
311.9755	-316.0000	-0.7485
312.0767	-316.0000	-0.7464
312.1767	-316.0000	-0.7450
312.2781	-316.0000	-0.7472
312.3791	-316.0000	-0.7491
312.4790	-316.0000	-0.7423
312.5790	-316.0000	-0.7440
312.6785	-316.0000	-0.7442
312.7787	-316.0000	-0.7405
312.8791	-316.0000	-0.7437
312.9794	-316.0000	-0.7462
313.0804	-316.0000	-0.7406
313.1810	-316.0000	-0.7430
313.2809	-316.0000	-0.7481
313.3805	-316.0000	-0.7435
313.4810	-316.0000	-0.7438
313.5804	-316.0000	-0.7487
313.6808	-316.0000	-0.7486
313.7815	-316.0000	-0.7416
313.8822	-316.0000	-0.7459
313.9822	-316.0000	-0.7435
314.0819	-316.0000	-0.7447
314.1825	-316.0000	-0.7461
314.2832	-316.0000	-0.7365
314.3831	-316.0000	-0.7436
314.4825	-316.0000	-0.7441
314.5824	-316.0000	-0.7406
314.6823	-316.0000	-0.7424
314.7823	-316.0000	-0.7395
314.8834	-316.0000	-0.7446
314.9834	-316.0000	-0.7354
315.0834	-316.0000	-0.7461
315.1852	-316.0000	-0.7433
315.2846	-316.0000	-0.7380
315.3851	-316.0000	-0.7365
315.4846	-316.0000	-0.7408
315.5846	-316.0000	-0.7415
315.6853	-316.0000	-0.7402
315.7863	-316.0000	-0.7407
315.8860	-316.0000	-0.7358
315.9860	-316.0000	-0.7351
316.0856	-316.0000	-0.7398
316.1855	-316.0000	-0.7382
316.2863	-316.0000	-0.7476
316.3856	-316.0000	-0.7401
316.4863	-316.0000	-0.7405
316.5878	-316.0000	-0.7393
316.6874	-316.0000	-0.7407
316.7880	-316.0000	-0.7375
316.8881	-316.0000	-0.7432
316.9879	-316.0000	-0.7404
317.0881	-316.0000	-0.7392
317.1882	-316.0000	-0.7418
317.2883	-316.0000	-0.7373
317.3876	-316.0000	-0.7337
317.4886	-316.0000	-0.7360
317.5892	-316.0000	-0.7427
317.6890	-316.0000	-0.7419
317.7888	-316.0000	-0.7395
317.8896	-316.0000	-0.7359
317.9899	-316.0000	-0.7394
318.0897	-316.0000	-0.7327
318.1899	-316.0000	-0.7407
318.2904	-316.0000	-0.7363
318.3905	-316.0000	-0.7386
318.4908	-316.0000	-0.7372
318.5908	-316.0000	-0.7353
318.6909	-316.0000	-0.7259
318.7911	-316.0000	-0.7357
318.8910	-316.0000	-0.7433
318.9913	-316.0000	-0.7362
319.0908	-316.0000	-0.7337
319.1909	-316.0000	-0.7320
319.2910	-316.0000	-0.7289
319.3910	-316.0000	-0.7383
319.4915	-316.0000	-0.7345
319.5925	-316.0000	-0.7410
319.6936	-316.0000	-0.7362
319.7952	-316.0000	-0.7370
319.8947	-316.0000	-0.7278
319.9946	-316.0000	-0.7373
320.0946	-316.0000	-0.7283
320.1947	-316.0000	-0.7356
320.2946	-316.0000	-0.7396
320.3947	-316.0000	-0.7325
320.4948	-316.0000	-0.7302
320.5946	-316.0000	-0.7331
320.6945	-316.0000	-0.7357
320.7946	-316.0000	-0.7390
320.8946	-316.0000	-0.7306
320.9946	-316.0000	-0.7345
321.0947	-316.0000	-0.7319
321.1949	-316.0000	-0.7287
321.2947	-316.0000	-0.7339
321.3947	-316.0000	-0.7349
321.4947	-316.0000	-0.7323
321.5948	-316.0000	-0.7389
321.6947	-316.0000	-0.7274
321.7949	-316.0000	-0.7326
321.8962	-316.0000	-0.7323
321.9961	-316.0000	-0.7258
322.0966	-316.0000	-0.7305
322.1984	-316.0000	-0.7311
322.2984	-316.0000	-0.7328
322.3981	-316.0000	-0.7294
322.4979	-316.0000	-0.7312
322.5985	-316.0000	-0.7316
322.6993	-316.0000	-0.7284
322.8004	-316.0000	-0.7300
322.9002	-316.0000	-0.7324
322.9998	-316.0000	-0.7294
323.0998	-316.0000	-0.7269
323.2004	-316.0000	-0.7312
323.3005	-316.0000	-0.7245
323.4006	-316.0000	-0.7307
323.5011	-316.0000	-0.7280
323.6016	-316.0000	-0.7310
323.7024	-316.0000	-0.7284
323.8017	-316.0000	-0.7292
323.9020	-316.0000	-0.7237
324.0023	-316.0000	-0.7218
324.1024	-316.0000	-0.7218
324.2024	-316.0000	-0.7256
324.3024	-316.0000	-0.7254
324.4025	-316.0000	-0.7295
324.5025	-316.0000	-0.7174
324.6025	-316.0000	-0.7215
324.7032	-316.0000	-0.7249
324.8032	-316.0000	-0.7222
324.9033	-316.0000	-0.7281
325.0033	-316.0000	-0.7265
325.1032	-316.0000	-0.7301
325.2035	-316.0000	-0.7189
325.3046	-316.0000	-0.7248
325.4047	-316.0000	-0.7214
325.5048	-316.0000	-0.7239
325.6048	-316.0000	-0.7238
325.7048	-316.0000	-0.7257
325.8048	-316.0000	-0.7255
325.9048	-316.0000	-0.7192
326.0046	-316.0000	-0.7210
326.1051	-316.0000	-0.7229
326.2055	-316.0000	-0.7141
326.3063	-316.0000	-0.7191
326.4062	-316.0000	-0.7230
326.5062	-316.0000	-0.7209
326.6058	-316.0000	-0.7230
326.7063	-316.0000	-0.7213
326.8062	-316.0000	-0.7221
326.9063	-316.0000	-0.7152
327.0065	-316.0000	-0.7178
327.1072	-316.0000	-0.7165
327.2068	-316.0000	-0.7238
327.3069	-316.0000	-0.7237
327.4072	-316.0000	-0.7212
327.5072	-316.0000	-0.7182
327.6072	-316.0000	-0.7250
327.7075	-316.0000	-0.7142
327.8072	-316.0000	-0.7224
327.9073	-316.0000	-0.7125
328.0071	-316.0000	-0.7213
328.1068	-316.0000	-0.7210
328.2071	-316.0000	-0.7206
328.3067	-316.0000	-0.7199
328.4070	-316.0000	-0.7179
328.5072	-316.0000	-0.7195
328.6072	-316.0000	-0.7179
328.7072	-316.0000	-0.7155
328.8071	-316.0000	-0.7184
328.9069	-316.0000	-0.7194
329.0073	-316.0000	-0.7210
329.1072	-316.0000	-0.7164
329.2074	-316.0000	-0.7123
329.3073	-316.0000	-0.7202
329.4069	-316.0000	-0.7183
329.5073	-316.0000	-0.7173
329.6071	-316.0000	-0.7170
329.7073	-316.0000	-0.7114
329.8070	-316.0000	-0.7192
329.9067	-316.0000	-0.7106
330.0073	-316.0000	-0.7141
330.1070	-316.0000	-0.7138
330.2068	-316.0000	-0.7167
330.3075	-316.0000	-0.7114
330.4073	-316.0000	-0.7096
330.5070	-316.0000	-0.7161
330.6067	-316.0000	-0.7065
330.7074	-316.0000	-0.7154
330.8072	-316.0000	-0.7179
330.9069	-316.0000	-0.7170
331.0066	-316.0000	-0.7137
331.1085	-316.0000	-0.7169
331.2085	-316.0000	-0.7132
331.3083	-316.0000	-0.7119
331.4080	-316.0000	-0.7161
331.5084	-316.0000	-0.7101
331.6088	-316.0000	-0.7136
331.7098	-316.0000	-0.7108
331.8103	-316.0000	-0.7086
331.9103	-316.0000	-0.7119
332.0103	-316.0000	-0.7116
332.1106	-316.0000	-0.7110
332.2110	-316.0000	-0.7124
332.3109	-316.0000	-0.7171
332.4111	-316.0000	-0.7162
332.5113	-316.0000	-0.7119
332.6116	-316.0000	-0.7151
332.7115	-316.0000	-0.7171
332.8117	-316.0000	-0.7120
332.9118	-316.0000	-0.7114
333.0127	-316.0000	-0.7094
333.1139	-316.0000	-0.7055
333.2148	-316.0000	-0.7112
333.3157	-316.0000	-0.7178
333.4172	-316.0000	-0.7181
333.5174	-316.0000	-0.7148
333.6167	-316.0000	-0.7091
333.7168	-316.0000	-0.7111
333.8183	-316.0000	-0.7128
333.9178	-316.0000	-0.7072
334.0183	-316.0000	-0.7072
334.1183	-316.0000	-0.7108
334.2186	-316.0000	-0.7090
334.3186	-316.0000	-0.7048
334.4184	-316.0000	-0.7083
334.5188	-316.0000	-0.7089
334.6189	-316.0000	-0.7031
334.7193	-316.0000	-0.7065
334.8195	-316.0000	-0.7089
334.9194	-316.0000	-0.7090
335.0196	-316.0000	-0.7100
335.1193	-316.0000	-0.7157
335.2188	-316.0000	-0.7104
335.3191	-316.0000	-0.7026
335.4192	-316.0000	-0.7015
335.5197	-316.0000	-0.7059
335.6202	-316.0000	-0.7131
335.7202	-316.0000	-0.7059
335.8206	-316.0000	-0.7060
335.9208	-316.0000	-0.7111
336.0216	-316.0000	-0.7109
336.1218	-316.0000	-0.7077
336.2218	-316.0000	-0.7026
336.3222	-316.0000	-0.7024
336.4224	-316.0000	-0.7061
336.5226	-316.0000	-0.7084
336.6226	-316.0000	-0.7031
336.7222	-316.0000	-0.7072
336.8223	-316.0000	-0.7075
336.9224	-316.0000	-0.7074
337.0220	-316.0000	-0.7063
337.1217	-316.0000	-0.7018
337.2218	-316.0000	-0.7004
337.3228	-316.0000	-0.6975
337.4237	-316.0000	-0.7026
337.5246	-316.0000	-0.6943
337.6246	-316.0000	-0.7063
337.7247	-316.0000	-0.6993
337.8250	-316.0000	-0.7045
337.9250	-316.0000	-0.7006
338.0250	-316.0000	-0.7057
338.1257	-316.0000	-0.7037
338.2250	-316.0000	-0.7008
338.3249	-316.0000	-0.7074
338.4250	-316.0000	-0.7057
338.5250	-316.0000	-0.6996
338.6250	-316.0000	-0.7001
338.7267	-316.0000	-0.7031
338.8264	-316.0000	-0.6981
338.9265	-316.0000	-0.6973
339.0265	-316.0000	-0.7041
339.1270	-316.0000	-0.7005
339.2274	-316.0000	-0.7054
339.3274	-316.0000	-0.7053
339.4274	-316.0000	-0.7041
339.5270	-316.0000	-0.7017
339.6271	-316.0000	-0.7005
339.7287	-316.0000	-0.7009
339.8284	-316.0000	-0.7050
339.9283	-316.0000	-0.6988
340.0287	-316.0000	-0.7028
340.1279	-316.0000	-0.6963
340.2286	-316.0000	-0.6998
340.3295	-316.0000	-0.6988
340.4296	-316.0000	-0.7005
340.5296	-316.0000	-0.7012
340.6297	-316.0000	-0.6985
340.7298	-316.0000	-0.7042
340.8300	-316.0000	-0.6971
340.9302	-316.0000	-0.6970
341.0303	-316.0000	-0.6977
341.1306	-316.0000	-0.7059
341.2306	-316.0000	-0.6986
341.3303	-316.0000	-0.7002
341.4307	-316.0000	-0.6968
341.5299	-316.0000	-0.7020
341.6304	-316.0000	-0.6967
341.7303	-316.0000	-0.6922
341.8307	-316.0000	-0.6988
341.9303	-316.0000	-0.6948
342.0302	-316.0000	-0.7007
342.1309	-316.0000	-0.6944
342.2313	-316.0000	-0.7020
342.3316	-316.0000	-0.7033
342.4317	-316.0000	-0.7000
342.5314	-316.0000	-0.6997
342.6319	-316.0000	-0.7002
342.7320	-316.0000	-0.6967
342.8330	-316.0000	-0.6932
342.9331	-316.0000	-0.6970
343.0333	-316.0000	-0.6939
343.1337	-316.0000	-0.6984
343.2338	-316.0000	-0.7010
343.3337	-316.0000	-0.7024
343.4336	-316.0000	-0.6970
343.5337	-316.0000	-0.6945
343.6336	-316.0000	-0.6936
343.7335	-316.0000	-0.6961
343.8335	-316.0000	-0.6938
343.9340	-316.0000	-0.6953
344.0352	-316.0000	-0.6935
344.1350	-316.0000	-0.6959
344.2348	-316.0000	-0.6951
344.3350	-316.0000	-0.6950
344.4350	-316.0000	-0.6970
344.5351	-316.0000	-0.6947
344.6351	-316.0000	-0.6986
344.7351	-316.0000	-0.6970
344.8351	-316.0000	-0.6928
344.9357	-316.0000	-0.6876
345.0354	-316.0000	-0.6911
345.1351	-316.0000	-0.6950
345.2350	-316.0000	-0.6938
345.3350	-316.0000	-0.6872
345.4350	-316.0000	-0.6970
345.5350	-316.0000	-0.6937
345.6350	-316.0000	-0.6972
345.7351	-316.0000	-0.6962
345.8351	-316.0000	-0.6970
345.9351	-316.0000	-0.6955
346.0351	-316.0000	-0.6868
346.1351	-316.0000	-0.6896
346.2352	-316.0000	-0.6958
346.3351	-316.0000	-0.6936
346.4352	-316.0000	-0.6926
346.5351	-316.0000	-0.6939
346.6352	-316.0000	-0.6906
346.7350	-316.0000	-0.6954
346.8351	-316.0000	-0.6929
346.9351	-316.0000	-0.6911
347.0351	-316.0000	-0.6858
347.1351	-316.0000	-0.6945
347.2351	-316.0000	-0.6873
347.3351	-316.0000	-0.6931
347.4351	-316.0000	-0.6933
347.5350	-316.0000	-0.6908
347.6352	-316.0000	-0.6970
347.7352	-316.0000	-0.6859
347.8352	-316.0000	-0.6917
347.9352	-316.0000	-0.6890
348.0352	-316.0000	-0.6941
348.1352	-316.0000	-0.6941
348.2352	-316.0000	-0.6902
348.3352	-316.0000	-0.6884
348.4352	-316.0000	-0.6873
348.5352	-316.0000	-0.6909
348.6352	-316.0000	-0.6896
348.7352	-316.0000	-0.6914
348.8351	-316.0000	-0.6902
348.9352	-316.0000	-0.6879
349.0352	-316.0000	-0.6893
349.1352	-316.0000	-0.6883
349.2352	-316.0000	-0.6909
349.3367	-316.0000	-0.6854
349.4365	-316.0000	-0.6872
349.5360	-316.0000	-0.6872
349.6367	-316.0000	-0.6925
349.7373	-316.0000	-0.6877
349.8376	-316.0000	-0.6889
349.9377	-316.0000	-0.6927
350.0376	-316.0000	-0.6870
350.1372	-316.0000	-0.6832
350.2383	-316.0000	-0.6894
350.3387	-316.0000	-0.6867
350.4389	-316.0000	-0.6836
350.5387	-316.0000	-0.6844
350.6392	-316.0000	-0.6919
350.7396	-316.0000	-0.6868
350.8399	-316.0000	-0.6860
350.9398	-316.0000	-0.6871
351.0390	-316.0000	-0.6894
351.1392	-316.0000	-0.6798
351.2398	-316.0000	-0.6805
351.3397	-316.0000	-0.6853
351.4406	-316.0000	-0.6888
351.5409	-316.0000	-0.6876
351.6405	-316.0000	-0.6851
351.7409	-316.0000	-0.6841
351.8410	-316.0000	-0.6839
351.9415	-316.0000	-0.6817
352.0417	-316.0000	-0.6885
352.1420	-316.0000	-0.6833
352.2421	-316.0000	-0.6882
352.3429	-316.0000	-0.6831
352.4430	-316.0000	-0.6827
352.5437	-316.0000	-0.6828
352.6439	-316.0000	-0.6825
352.7434	-316.0000	-0.6819
352.8431	-316.0000	-0.6796
352.9435	-316.0000	-0.6820
353.0438	-316.0000	-0.6855
353.1436	-316.0000	-0.6809
353.2438	-316.0000	-0.6779
353.3433	-316.0000	-0.6831
353.4432	-316.0000	-0.6880
353.5440	-316.0000	-0.6826
353.6440	-316.0000	-0.6811
353.7448	-316.0000	-0.6856
353.8447	-316.0000	-0.6790
353.9448	-316.0000	-0.6837
354.0449	-316.0000	-0.6778
354.1450	-316.0000	-0.6820
354.2444	-316.0000	-0.6800
354.3440	-316.0000	-0.6786
354.4447	-316.0000	-0.6780
354.5440	-316.0000	-0.6785
354.6445	-316.0000	-0.6759
354.7459	-316.0000	-0.6765
354.8457	-316.0000	-0.6805
354.9451	-316.0000	-0.6836
355.0453	-316.0000	-0.6807
355.1459	-316.0000	-0.6792
355.2468	-316.0000	-0.6771
355.3460	-316.0000	-0.6829
355.4460	-316.0000	-0.6836
355.5468	-316.0000	-0.6797
355.6467	-316.0000	-0.6808
355.7474	-316.0000	-0.6778
355.8476	-316.0000	-0.6725
355.9477	-316.0000	-0.6794
356.0476	-316.0000	-0.6824
356.1473	-316.0000	-0.6786
356.2477	-316.0000	-0.6819
356.3475	-316.0000	-0.6787
356.4475	-316.0000	-0.6745
356.5474	-316.0000	-0.6817
356.6475	-316.0000	-0.6774
356.7475	-316.0000	-0.6750
356.8476	-316.0000	-0.6772
356.9477	-316.0000	-0.6790
357.0477	-316.0000	-0.6774
357.1477	-316.0000	-0.6785
357.2477	-316.0000	-0.6747
357.3476	-316.0000	-0.6771
357.4475	-316.0000	-0.6724
357.5477	-316.0000	-0.6744
357.6476	-316.0000	-0.6775
357.7476	-316.0000	-0.6775
357.8475	-316.0000	-0.6758
357.9474	-316.0000	-0.6786
358.0476	-316.0000	-0.6718
358.1476	-316.0000	-0.6758
358.2477	-316.0000	-0.6732
358.3473	-316.0000	-0.6783
358.4477	-316.0000	-0.6769
358.5477	-316.0000	-0.6770
358.6477	-316.0000	-0.6751
358.7478	-316.0000	-0.6730
358.8476	-316.0000	-0.6758
358.9478	-316.0000	-0.6709
359.0478	-316.0000	-0.6754
359.1474	-316.0000	-0.6742
359.2478	-316.0000	-0.6775
359.3473	-316.0000	-0.6709
359.4478	-316.0000	-0.6750
359.5476	-316.0000	-0.6696
359.6478	-316.0000	-0.6773
359.7478	-316.0000	-0.6741
359.8478	-316.0000	-0.6789
359.9471	-316.0000	-0.6704
360.0478	-316.0000	-0.6745
360.1473	-316.0000	-0.6751
360.2473	-316.0000	-0.6737
360.3490	-316.0000	-0.6668
360.4482	-316.0000	-0.6720
360.5483	-316.0000	-0.6707
360.6483	-316.0000	-0.6644
360.7486	-316.0000	-0.6715
360.8486	-316.0000	-0.6730
360.9487	-316.0000	-0.6721
361.0483	-316.0000	-0.6721
361.1488	-316.0000	-0.6746
361.2487	-316.0000	-0.6747
361.3489	-316.0000	-0.6686
361.4490	-316.0000	-0.6754
361.5485	-316.0000	-0.6631
361.6498	-316.0000	-0.6774
361.7499	-316.0000	-0.6649
361.8498	-316.0000	-0.6675
361.9502	-316.0000	-0.6696
362.0511	-316.0000	-0.6716
362.1519	-316.0000	-0.6725
362.2513	-316.0000	-0.6623
362.3517	-316.0000	-0.6686
362.4530	-316.0000	-0.6760
362.5531	-316.0000	-0.6801
362.6526	-316.0000	-0.6674
362.7523	-316.0000	-0.6675
362.8524	-316.0000	-0.6655
362.9526	-316.0000	-0.6701
363.0522	-316.0000	-0.6622
363.1536	-316.0000	-0.6694
363.2539	-316.0000	-0.6695
363.3541	-316.0000	-0.6707
363.4553	-316.0000	-0.6685
363.5554	-316.0000	-0.6648
363.6554	-316.0000	-0.6722
363.7554	-316.0000	-0.6573
363.8554	-316.0000	-0.6681
363.9554	-316.0000	-0.6627
364.0553	-316.0000	-0.6748
364.1554	-316.0000	-0.6739
364.2553	-316.0000	-0.6633
364.3563	-316.0000	-0.6675
364.4573	-316.0000	-0.6748
364.5578	-316.0000	-0.6709
364.6579	-316.0000	-0.6651
364.7579	-316.0000	-0.6658
364.8578	-316.0000	-0.6638
364.9575	-316.0000	-0.6724
365.0579	-316.0000	-0.6683
365.1578	-316.0000	-0.6698
365.2575	-316.0000	-0.6622
365.3578	-316.0000	-0.6632
365.4575	-316.0000	-0.6666
365.5575	-316.0000	-0.6694
365.6575	-316.0000	-0.6632
365.7575	-316.0000	-0.6611
365.8575	-316.0000	-0.6692
365.9576	-316.0000	-0.6681
366.0581	-316.0000	-0.6661
366.1578	-316.0000	-0.6674
366.2581	-316.0000	-0.6758
366.3575	-316.0000	-0.6678
366.4578	-316.0000	-0.6617
366.5576	-316.0000	-0.6645
366.6576	-316.0000	-0.6666
366.7576	-316.0000	-0.6655
366.8574	-316.0000	-0.6639
366.9576	-316.0000	-0.6628
367.0575	-316.0000	-0.6588
367.1590	-316.0000	-0.6651
367.2594	-316.0000	-0.6685
367.3606	-316.0000	-0.6626
367.4614	-316.0000	-0.6596
367.5619	-316.0000	-0.6670
367.6618	-316.0000	-0.6638
367.7621	-316.0000	-0.6573
367.8624	-316.0000	-0.6595
367.9626	-316.0000	-0.6618
368.0628	-316.0000	-0.6590
368.1623	-316.0000	-0.6679
368.2632	-316.0000	-0.6604
368.3638	-316.0000	-0.6624
368.4638	-316.0000	-0.6681
368.5640	-316.0000	-0.6654
368.6642	-316.0000	-0.6618
368.7649	-316.0000	-0.6609
368.8642	-316.0000	-0.6668
368.9654	-316.0000	-0.6632
369.0655	-316.0000	-0.6614
369.1659	-316.0000	-0.6604
369.2654	-316.0000	-0.6643
369.3655	-316.0000	-0.6605
369.4655	-316.0000	-0.6693
369.5655	-316.0000	-0.6630
369.6655	-316.0000	-0.6606
369.7655	-316.0000	-0.6636
369.8655	-316.0000	-0.6592
369.9655	-316.0000	-0.6609
370.0655	-316.0000	-0.6583
370.1655	-316.0000	-0.6625
370.2656	-316.0000	-0.6613
370.3655	-316.0000	-0.6604
370.4655	-316.0000	-0.6594
370.5670	-316.0000	-0.6618
370.6665	-316.0000	-0.6653
370.7669	-316.0000	-0.6611
370.8663	-316.0000	-0.6645
370.9670	-316.0000	-0.6597
371.0669	-316.0000	-0.6634
371.1664	-316.0000	-0.6626
371.2669	-316.0000	-0.6598
371.3663	-316.0000	-0.6573
371.4672	-316.0000	-0.6710
371.5674	-316.0000	-0.6607
371.6680	-316.0000	-0.6602
371.7676	-316.0000	-0.6623
371.8680	-316.0000	-0.6603
371.9680	-316.0000	-0.6571
372.0680	-316.0000	-0.6548
372.1680	-316.0000	-0.6595
372.2677	-316.0000	-0.6600
372.3680	-316.0000	-0.6610
372.4680	-316.0000	-0.6523
372.5680	-316.0000	-0.6563
372.6680	-316.0000	-0.6636
372.7679	-316.0000	-0.6613
372.8680	-316.0000	-0.6564
372.9679	-316.0000	-0.6616
373.0680	-316.0000	-0.6583
373.1680	-316.0000	-0.6554
373.2676	-316.0000	-0.6609
373.3680	-316.0000	-0.6593
373.4679	-316.0000	-0.6595
373.5680	-316.0000	-0.6605
373.6680	-316.0000	-0.6489
373.7680	-316.0000	-0.6574
373.8684	-316.0000	-0.6562
373.9696	-316.0000	-0.6543
374.0694	-316.0000	-0.6660
374.1704	-316.0000	-0.6560
374.2704	-316.0000	-0.6564
374.3712	-316.0000	-0.6507
374.4714	-316.0000	-0.6591
374.5715	-316.0000	-0.6566
374.6719	-316.0000	-0.6491
374.7724	-316.0000	-0.6535
374.8733	-316.0000	-0.6566
374.9732	-316.0000	-0.6519
375.0732	-316.0000	-0.6571
375.1733	-316.0000	-0.6454
375.2729	-316.0000	-0.6547
375.3726	-316.0000	-0.6578
375.4726	-316.0000	-0.6582
375.5726	-316.0000	-0.6498
375.6731	-316.0000	-0.6523
375.7729	-316.0000	-0.6601
375.8741	-316.0000	-0.6528
375.9751	-316.0000	-0.6531
376.0747	-316.0000	-0.6467
376.1749	-316.0000	-0.6524
376.2744	-316.0000	-0.6622
376.3744	-316.0000	-0.6564
376.4744	-316.0000	-0.6523
376.5760	-316.0000	-0.6516
376.6757	-316.0000	-0.6563
376.7757	-316.0000	-0.6502
376.8757	-316.0000	-0.6576
376.9756	-316.0000	-0.6489
377.0757	-316.0000	-0.6583
377.1757	-316.0000	-0.6413
377.2756	-316.0000	-0.6523
377.3757	-316.0000	-0.6513
377.4763	-316.0000	-0.6514
377.5757	-316.0000	-0.6520
377.6757	-316.0000	-0.6481
377.7757	-316.0000	-0.6526
377.8757	-316.0000	-0.6499
377.9764	-316.0000	-0.6561
378.0770	-316.0000	-0.6518
378.1778	-316.0000	-0.6510
378.2777	-316.0000	-0.6515
378.3780	-316.0000	-0.6542
378.4781	-316.0000	-0.6493
378.5781	-316.0000	-0.6565
378.6778	-316.0000	-0.6488
378.7778	-316.0000	-0.6538
378.8779	-316.0000	-0.6626
378.9782	-316.0000	-0.6520
379.0781	-316.0000	-0.6523
379.1781	-316.0000	-0.6511
379.2781	-316.0000	-0.6514
379.3778	-316.0000	-0.6504
379.4779	-316.0000	-0.6523
379.5781	-316.0000	-0.6466
379.6782	-316.0000	-0.6517
379.7781	-316.0000	-0.6498
379.8780	-316.0000	-0.6521
379.9780	-316.0000	-0.6499
380.0780	-316.0000	-0.6468
380.1781	-316.0000	-0.6495
380.2781	-316.0000	-0.6526
380.3782	-316.0000	-0.6534
380.4782	-316.0000	-0.6531
380.5782	-316.0000	-0.6460
380.6781	-316.0000	-0.6479
380.7781	-316.0000	-0.6539
380.8791	-316.0000	-0.6443
380.9803	-316.0000	-0.6478
381.0802	-316.0000	-0.6507
381.1801	-316.0000	-0.6487
381.2798	-316.0000	-0.6493
381.3813	-316.0000	-0.6488
381.4815	-316.0000	-0.6503
381.5824	-316.0000	-0.6534
381.6825	-316.0000	-0.6451
381.7833	-316.0000	-0.6448
381.8834	-316.0000	-0.6536
381.9835	-316.0000	-0.6468
382.0835	-316.0000	-0.6450
382.1846	-316.0000	-0.6482
382.2846	-316.0000	-0.6443
382.3847	-316.0000	-0.6501
382.4861	-316.0000	-0.6501
382.5860	-316.0000	-0.6400
382.6866	-316.0000	-0.6471
382.7867	-316.0000	-0.6497
382.8869	-316.0000	-0.6438
382.9866	-316.0000	-0.6453
383.0869	-316.0000	-0.6392
383.1870	-316.0000	-0.6435
383.2884	-316.0000	-0.6443
383.3882	-316.0000	-0.6404
383.4882	-316.0000	-0.6407
383.5879	-316.0000	-0.6440
383.6882	-316.0000	-0.6401
383.7879	-316.0000	-0.6420
383.8882	-316.0000	-0.6456
383.9879	-316.0000	-0.6395
384.0896	-316.0000	-0.6405
384.1906	-316.0000	-0.6407
384.2909	-316.0000	-0.6477
384.3906	-316.0000	-0.6458
384.4916	-316.0000	-0.6427
384.5917	-316.0000	-0.6467
384.6919	-316.0000	-0.6519
384.7922	-316.0000	-0.6465
384.8927	-316.0000	-0.6450
384.9931	-316.0000	-0.6480
385.0935	-316.0000	-0.6512
385.1935	-316.0000	-0.6507
385.2930	-316.0000	-0.6430
385.3932	-316.0000	-0.6461
385.4935	-316.0000	-0.6460
385.5934	-316.0000	-0.6413
385.6930	-316.0000	-0.6413
385.7930	-316.0000	-0.6418
385.8932	-316.0000	-0.6412
385.9936	-316.0000	-0.6395
386.0940	-316.0000	-0.6395
386.1940	-316.0000	-0.6401
386.2940	-316.0000	-0.6352
386.3955	-316.0000	-0.6389
386.4946	-316.0000	-0.6436
386.5953	-316.0000	-0.6415
386.6953	-316.0000	-0.6408
386.7948	-316.0000	-0.6378
386.8949	-316.0000	-0.6427
386.9948	-316.0000	-0.6397
387.0950	-316.0000	-0.6440
387.1952	-316.0000	-0.6385
387.2952	-316.0000	-0.6405
387.3954	-316.0000	-0.6400
387.4952	-316.0000	-0.6308
387.5954	-316.0000	-0.6369
387.6954	-316.0000	-0.6438
387.7954	-316.0000	-0.6401
387.8954	-316.0000	-0.6383
387.9954	-316.0000	-0.6437
388.0955	-316.0000	-0.6447
388.1954	-316.0000	-0.6409
388.2953	-316.0000	-0.6351
388.3954	-316.0000	-0.6416
388.4947	-316.0000	-0.6455
388.5950	-316.0000	-0.6381
388.6951	-316.0000	-0.6354
388.7952	-316.0000	-0.6414
388.8954	-316.0000	-0.6374
388.9954	-316.0000	-0.6400
389.0954	-316.0000	-0.6360
389.1947	-316.0000	-0.6371
389.2948	-316.0000	-0.6414
389.3947	-316.0000	-0.6409
389.4953	-316.0000	-0.6338
389.5958	-316.0000	-0.6377
389.6970	-316.0000	-0.6342
389.7976	-316.0000	-0.6381
389.8979	-316.0000	-0.6308
389.9980	-316.0000	-0.6387
390.0980	-316.0000	-0.6370
390.1992	-316.0000	-0.6393
390.2991	-316.0000	-0.6394
390.3991	-316.0000	-0.6349
390.4995	-316.0000	-0.6313
390.5987	-316.0000	-0.6319
390.6995	-316.0000	-0.6418
390.8003	-316.0000	-0.6340
390.9007	-316.0000	-0.6356
391.0011	-316.0000	-0.6351
391.1015	-316.0000	-0.6369
391.2016	-316.0000	-0.6346
391.3029	-316.0000	-0.6395
391.4032	-316.0000	-0.6315
391.5030	-316.0000	-0.6326
391.6027	-316.0000	-0.6341
391.7034	-316.0000	-0.6392
391.8032	-316.0000	-0.6374
391.9029	-316.0000	-0.6348
392.0026	-316.0000	-0.6343
392.1034	-316.0000	-0.6375
392.2031	-316.0000	-0.6362
392.3029	-316.0000	-0.6324
392.4046	-316.0000	-0.6367
392.5043	-316.0000	-0.6368
392.6037	-316.0000	-0.6337
392.7043	-316.0000	-0.6400
392.8045	-316.0000	-0.6352
392.9045	-316.0000	-0.6378
393.0042	-316.0000	-0.6351
393.1046	-316.0000	-0.6339
393.2047	-316.0000	-0.6260
393.3048	-316.0000	-0.6394
393.4048	-316.0000	-0.6313
393.5048	-316.0000	-0.6318
393.6048	-316.0000	-0.6394
393.7048	-316.0000	-0.6352
393.8052	-316.0000	-0.6341
393.9055	-316.0000	-0.6391
394.0054	-316.0000	-0.6330
394.1050	-316.0000	-0.6266
394.2049	-316.0000	-0.6301
394.3051	-316.0000	-0.6333
394.4065	-316.0000	-0.6351
394.5060	-316.0000	-0.6344
394.6064	-316.0000	-0.6346
394.7059	-316.0000	-0.6366
394.8067	-316.0000	-0.6295
394.9068	-316.0000	-0.6315
395.0080	-316.0000	-0.6288
395.1081	-316.0000	-0.6327
395.2080	-316.0000	-0.6323
395.3080	-316.0000	-0.6263
395.4082	-316.0000	-0.6279
395.5084	-316.0000	-0.6342
395.6084	-316.0000	-0.6343
395.7084	-316.0000	-0.6279
395.8084	-316.0000	-0.6319
395.9084	-316.0000	-0.6275
396.0096	-316.0000	-0.6325
396.1096	-316.0000	-0.6347
