4/12/2023 4:40:20 pm
Time(s)	Displacement(mm)	Force(N)
0.0000	-258.7030	1.1698
0.1628	-258.2020	1.1814
0.2636	-258.2070	1.1851
0.3636	-258.2070	1.1855
0.4644	-258.2070	1.1798
0.5640	-258.2070	1.1824
0.6639	-258.2070	1.1838
0.7643	-258.2080	1.1798
0.8641	-258.2080	1.1802
0.9638	-258.2080	1.1816
1.0649	-258.2080	1.1829
1.1652	-258.2080	1.1834
1.2662	-258.2080	1.1803
1.3663	-258.2080	1.1819
1.4664	-258.2080	1.1784
1.5664	-258.2080	1.1809
1.6661	-258.2080	1.1820
1.7666	-258.2080	1.1841
1.8671	-258.2080	1.1798
1.9667	-258.2080	1.1802
2.0670	-258.2080	1.1781
2.1675	-258.2080	1.1810
2.2680	-258.2080	1.1747
2.3675	-258.2080	1.1778
2.4677	-258.2080	1.1812
2.5684	-258.2080	1.1787
2.6685	-258.2080	1.1805
2.7690	-258.2080	1.1813
2.8692	-258.2080	1.1796
2.9693	-258.2080	1.1820
3.0691	-258.2080	1.1822
3.1688	-258.2080	1.1804
3.2688	-258.2080	1.1779
3.3688	-258.2080	1.1817
3.4693	-258.2080	1.1833
3.5692	-258.2080	1.1833
3.6693	-258.2080	1.1825
3.7690	-258.2080	1.1859
3.8694	-258.2080	1.1846
3.9691	-258.2080	1.1854
4.0686	-258.2080	1.1819
4.1702	-258.2080	1.1843
4.2700	-258.2080	1.1859
4.3705	-258.2080	1.1824
4.4708	-258.2080	1.1847
4.5705	-258.2080	1.1845
4.6710	-258.2080	1.1832
4.7722	-258.2080	1.1804
4.8722	-258.2080	1.1847
4.9723	-258.2080	1.1827
5.0722	-258.2080	1.1810
5.1721	-258.2080	1.1842
5.2738	-258.2080	1.1838
5.3736	-258.2080	1.1804
5.4750	-258.2080	1.1807
5.5763	-258.2080	1.1846
5.6762	-258.2080	1.1840
5.7764	-258.2080	1.1847
5.8769	-258.2080	1.1845
5.9765	-258.0590	1.1965
6.0984	-258.0010	1.1775
6.1980	-258.0000	1.1882
6.2976	-258.0000	1.1876
6.3985	-258.0000	1.1893
6.5004	-258.0000	1.1852
6.6001	-258.0000	1.1880
6.7003	-258.0000	1.1848
6.7999	-258.0000	1.1867
6.9001	-258.0000	1.1856
6.9995	-258.0000	1.1871
7.1011	-258.0000	1.1853
7.2009	-258.0000	1.1857
7.3009	-258.0000	1.1853
7.4009	-258.0000	1.1889
7.5015	-258.0000	1.1846
7.6025	-258.0000	1.1851
7.7032	-258.0000	1.1888
7.8031	-258.0000	1.1868
7.9031	-258.0000	1.1865
8.0026	-258.0000	1.1866
8.1031	-258.0000	1.1894
8.2031	-258.0000	1.1864
8.3044	-258.0000	1.1871
8.4041	-258.0000	1.1892
8.5039	-258.0000	1.1874
8.6039	-258.0000	1.1873
8.7038	-258.0000	1.1844
8.8035	-258.0000	1.1870
8.9051	-258.0000	1.1835
9.0051	-258.0000	1.1855
9.1063	-258.0000	1.1861
9.2064	-258.0000	1.1886
9.3061	-258.0000	1.1844
9.4062	-258.0000	1.1886
9.5065	-258.0000	1.1863
9.6068	-258.0000	1.1880
9.7065	-258.0000	1.1883
9.8069	-258.0000	1.1873
9.9080	-258.0000	1.1881
10.0082	-258.0000	1.1875
10.1085	-258.0000	1.1879
10.2092	-258.0000	1.1889
10.3086	-258.0000	1.1859
10.4098	-258.0000	1.1887
10.5101	-258.0000	1.1839
10.6099	-258.0000	1.1862
10.7111	-258.0000	1.1849
10.8110	-258.0000	1.1867
10.9108	-258.0000	1.1879
11.0106	-258.0000	1.1847
11.1108	-258.0000	1.1841
11.2108	-258.0000	1.1853
11.3108	-258.0000	1.1887
11.4105	-258.0000	1.1858
11.5112	-258.0000	1.1864
11.6108	-258.0000	1.1872
11.7109	-258.0000	1.1873
11.8122	-258.0000	1.1847
11.9131	-258.0000	1.1836
12.0135	-258.0000	1.1824
12.1138	-258.0000	1.1835
12.2155	-258.0000	1.1887
12.3147	-258.0000	1.1883
12.4160	-258.0000	1.1861
12.5161	-258.0000	1.1864
12.6162	-258.0000	1.1879
12.7159	-258.0000	1.1849
12.8157	-258.0000	1.1859
12.9160	-258.0000	1.1877
13.0161	-258.0000	1.1922
13.1158	-258.0000	1.1896
13.2156	-258.0000	1.1882
13.3159	-258.0000	1.1915
13.4156	-258.0000	1.1858
13.5163	-258.0000	1.1830
13.6160	-258.1480	1.1781
13.7357	-258.5620	1.1731
13.8374	-259.2130	1.1712
13.9372	-259.8930	1.1680
14.0373	-260.0000	1.1683
14.1368	-260.0000	1.1526
14.2378	-260.0000	1.1557
14.3378	-260.0000	1.1540
14.4378	-260.0000	1.1533
14.5385	-260.0000	1.1550
14.6385	-260.0000	1.1542
14.7376	-260.0000	1.1560
14.8388	-260.0000	1.1538
14.9387	-260.0000	1.1524
15.0393	-260.0000	1.1531
15.1388	-260.0000	1.1592
15.2401	-260.0000	1.1582
15.3415	-260.0000	1.1562
15.4409	-260.0000	1.1594
15.5420	-260.0000	1.1567
15.6430	-260.0000	1.1560
15.7431	-260.0000	1.1539
15.8429	-260.0000	1.1549
15.9441	-260.0000	1.1531
16.0453	-260.0000	1.1512
16.1454	-260.0000	1.1527
16.2448	-260.0000	1.1554
16.3462	-260.0000	1.1544
16.4472	-260.0000	1.1591
16.5472	-260.0000	1.1568
16.6468	-260.0000	1.1560
16.7475	-260.0000	1.1547
16.8474	-260.0000	1.1558
16.9472	-260.0000	1.1573
17.0469	-260.0000	1.1537
17.1481	-260.0000	1.1554
17.2481	-260.0000	1.1582
17.3482	-260.0000	1.1531
17.4481	-260.0000	1.1559
17.5477	-260.0000	1.1542
17.6477	-260.0000	1.1550
17.7495	-260.0000	1.1576
17.8490	-260.0000	1.1570
17.9496	-260.0000	1.1583
18.0502	-260.0000	1.1549
18.1512	-260.0000	1.1556
18.2509	-260.0000	1.1577
18.3513	-260.0000	1.1577
18.4510	-260.0000	1.1566
18.5509	-260.0000	1.1586
18.6507	-260.0000	1.1558
18.7509	-260.0000	1.1547
18.8506	-260.0000	1.1566
18.9506	-260.0000	1.1613
19.0525	-260.0000	1.1591
19.1522	-260.0000	1.1548
19.2523	-260.0000	1.1573
19.3530	-260.0000	1.1576
19.4530	-260.0000	1.1584
19.5530	-260.0000	1.1585
19.6530	-260.0000	1.1590
19.7532	-260.0000	1.1585
19.8532	-260.0000	1.1589
19.9531	-260.0000	1.1565
20.0533	-260.0000	1.1561
20.1530	-260.0000	1.1574
20.2533	-260.0000	1.1574
20.3543	-260.0000	1.1616
20.4545	-260.0000	1.1572
20.5545	-260.0000	1.1566
20.6540	-260.0000	1.1559
20.7537	-260.0000	1.1539
20.8536	-260.0000	1.1527
20.9546	-260.0000	1.1575
21.0565	-260.0000	1.1580
21.1560	-260.0000	1.1578
21.2558	-260.0000	1.1577
21.3575	-260.0000	1.1596
21.4582	-260.0000	1.1598
21.5580	-260.0000	1.1584
21.6595	-260.0000	1.1564
21.7591	-260.0000	1.1586
21.8590	-260.0000	1.1599
21.9601	-260.0000	1.1578
22.0606	-260.0000	1.1588
22.1608	-260.0000	1.1573
22.2617	-260.0000	1.1585
22.3623	-260.0000	1.1576
22.4625	-260.0000	1.1602
22.5622	-260.0000	1.1604
22.6632	-260.0000	1.1570
22.7641	-260.0000	1.1612
22.8647	-260.0000	1.1600
22.9648	-260.0000	1.1564
23.0670	-260.0000	1.1572
23.1661	-260.0000	1.1576
23.2659	-260.0000	1.1567
23.3656	-260.0000	1.1562
23.4673	-260.0000	1.1554
23.5673	-260.0000	1.1586
23.6682	-260.0000	1.1588
23.7681	-260.0000	1.1577
23.8692	-260.0000	1.1586
23.9687	-260.0000	1.1569
24.0691	-260.0000	1.1552
24.1696	-260.0000	1.1592
24.2692	-260.0000	1.1583
24.3687	-260.0000	1.1574
24.4694	-260.0000	1.1564
24.5705	-260.0000	1.1593
24.6710	-260.0000	1.1592
24.7707	-260.0000	1.1583
24.8713	-260.0000	1.1580
24.9719	-260.0000	1.1612
25.0727	-260.0000	1.1571
25.1727	-260.0000	1.1554
25.2733	-260.0000	1.1552
25.3728	-260.0000	1.1548
25.4732	-260.0000	1.1503
25.5726	-260.0000	1.1548
25.6742	-260.0000	1.1583
25.7757	-260.0000	1.1585
25.8758	-260.0000	1.1621
25.9778	-260.0000	1.1642
26.0782	-260.0000	1.1613
26.1780	-260.0000	1.1591
26.2792	-260.0000	1.1597
26.3797	-260.0000	1.1560
26.4797	-260.0000	1.1595
26.5802	-260.0000	1.1570
26.6811	-260.0000	1.1571
26.7810	-260.0000	1.1570
26.8810	-260.0000	1.1573
26.9817	-260.1380	1.1549
27.1034	-260.5500	1.1382
27.2030	-261.2020	1.1493
27.3034	-261.8850	1.1398
27.4029	-262.5350	1.1302
27.5034	-263.2180	1.1183
27.6032	-263.8680	1.1130
27.7039	-264.5540	1.1021
27.8043	-265.2380	1.0953
27.9037	-265.8870	1.0868
28.0042	-266.5710	1.0808
28.1054	-267.2200	1.0832
28.2057	-267.9040	1.0824
28.3067	-268.5870	1.0781
28.4074	-269.2370	1.0765
28.5086	-269.9200	1.0767
28.6087	-270.6040	1.0716
28.7087	-271.2530	1.0772
28.8089	-271.9370	1.0753
28.9098	-272.5860	1.0684
29.0103	-273.2710	1.0671
29.1100	-273.9190	1.0679
29.2097	-274.6030	1.0679
29.3101	-275.2520	1.0612
29.4106	-275.9360	1.0603
29.5110	-276.5850	1.0592
29.6126	-277.2690	1.0550
29.7124	-277.9530	1.0510
29.8122	-278.6020	1.0511
29.9119	-279.2860	1.0480
30.0134	-279.9350	1.0468
30.1132	-280.6190	1.0445
30.2127	-281.3030	1.0434
30.3142	-281.9520	1.0345
30.4149	-282.6350	1.0341
30.5152	-283.2850	1.0293
30.6167	-283.9690	1.0239
30.7163	-284.6520	1.0186
30.8167	-285.3010	1.0134
30.9181	-285.9850	1.0077
31.0188	-286.6680	1.0039
31.1193	-287.3180	0.9915
31.2189	-288.0010	0.9904
31.3188	-288.6510	0.9801
31.4196	-289.3350	0.9724
31.5193	-289.9840	0.9634
31.6190	-290.6680	0.9508
31.7192	-291.3170	0.9381
31.8193	-292.0010	0.9289
31.9196	-292.6500	0.9137
32.0206	-293.3330	0.8990
32.1210	-294.0170	0.8812
32.2209	-294.6670	0.8621
32.3210	-295.3500	0.8391
32.4213	-296.0000	0.8107
32.5234	-296.6830	0.7861
32.6231	-297.3320	0.7545
32.7233	-298.0160	0.7218
32.8232	-298.6660	0.6780
32.9230	-299.3520	0.6391
33.0231	-300.0010	0.5902
33.1228	-300.6870	0.5399
33.2243	-301.3710	0.4768
33.3246	-302.0200	0.4059
33.4241	-302.7040	0.3267
33.5240	-303.3530	0.2338
33.6243	-304.0360	0.1305
33.7241	-304.6860	0.0149
33.8244	-305.3690	-0.1173
33.9242	-306.0190	-0.2678
34.0258	-306.7030	-0.4382
34.1263	-307.3860	-0.6388
34.2263	-308.0360	-0.8633
34.3265	-308.6860	-1.1236
34.4261	-309.3690	-1.4177
34.5263	-310.0520	-1.7495
34.6261	-310.7020	-2.1185
34.7269	-311.3850	-2.5366
34.8276	-312.0350	-3.0055
34.9282	-312.7180	-3.5299
35.0281	-313.3680	-4.1100
35.1278	-314.0510	-4.7437
35.2279	-314.7350	-5.4326
35.3282	-315.3840	-6.1714
35.4284	-316.0340	-6.9452
35.5279	-316.7100	-7.7588
35.6287	-316.8010	-8.6907
35.7286	-316.8010	-8.8607
35.8282	-316.8010	-8.6020
35.9283	-316.8010	-8.4503
36.0287	-316.8010	-8.3469
36.1285	-316.8000	-8.2652
36.2285	-316.8000	-8.1979
36.3283	-316.8000	-8.1428
36.4285	-316.8000	-8.0954
36.5287	-316.8000	-8.0547
36.6287	-316.8000	-8.0201
36.7281	-316.8000	-7.9855
36.8278	-316.8000	-7.9545
36.9284	-316.8000	-7.9267
37.0292	-316.8000	-7.9039
37.1290	-316.8000	-7.8775
37.2293	-316.8000	-7.8548
37.3293	-316.8000	-7.8381
37.4303	-316.8000	-7.8189
37.5301	-316.8000	-7.8009
37.6307	-316.8000	-7.7823
37.7305	-316.8000	-7.7690
37.8317	-316.8000	-7.7525
37.9311	-316.8000	-7.7365
38.0311	-316.8000	-7.7232
38.1308	-316.8000	-7.7101
38.2331	-316.8000	-7.6966
38.3321	-316.8000	-7.6844
38.4325	-316.8000	-7.6724
38.5318	-316.8000	-7.6624
38.6337	-316.8000	-7.6529
38.7332	-316.8000	-7.6405
38.8333	-316.8000	-7.6288
38.9328	-316.8000	-7.6214
39.0329	-316.8000	-7.6117
39.1334	-316.8000	-7.6031
39.2333	-316.8000	-7.5943
39.3328	-316.8000	-7.5884
39.4336	-316.8000	-7.5774
39.5333	-316.8000	-7.5684
39.6342	-316.8000	-7.5605
39.7347	-316.8000	-7.5511
39.8349	-316.8000	-7.5448
39.9350	-316.8000	-7.5379
40.0353	-316.8000	-7.5298
40.1357	-316.8000	-7.5249
40.2358	-316.8000	-7.5207
40.3365	-316.8000	-7.5110
40.4373	-316.8000	-7.5064
40.5374	-316.8000	-7.4977
40.6372	-316.8000	-7.4911
40.7373	-316.8000	-7.4860
40.8369	-316.8000	-7.4822
40.9380	-316.8000	-7.4743
41.0379	-316.8000	-7.4656
41.1387	-316.8000	-7.4616
41.2388	-316.8000	-7.4569
41.3399	-316.8000	-7.4522
41.4406	-316.8000	-7.4437
41.5404	-316.8000	-7.4392
41.6399	-316.8000	-7.4381
41.7399	-316.8000	-7.4329
41.8399	-316.8000	-7.4238
41.9410	-316.8000	-7.4196
42.0417	-316.8000	-7.4183
42.1412	-316.8000	-7.4133
42.2412	-316.8000	-7.4053
42.3412	-316.8000	-7.4044
42.4424	-316.8000	-7.3984
42.5431	-316.8000	-7.3964
42.6433	-316.8000	-7.3894
42.7435	-316.8000	-7.3852
42.8433	-316.8000	-7.3828
42.9431	-316.8000	-7.3747
43.0434	-316.8000	-7.3709
43.1435	-316.8000	-7.3664
43.2432	-316.8000	-7.3640
43.3432	-316.8000	-7.3592
43.4435	-316.8000	-7.3552
43.5435	-316.8000	-7.3506
43.6436	-316.8000	-7.3463
43.7432	-316.8000	-7.3437
43.8432	-316.8000	-7.3408
43.9434	-316.8000	-7.3367
44.0434	-316.8000	-7.3341
44.1428	-316.8000	-7.3300
44.2430	-316.8000	-7.3247
44.3428	-316.8000	-7.3248
44.4434	-316.8000	-7.3201
44.5435	-316.8000	-7.3160
44.6445	-316.8000	-7.3104
44.7445	-316.8000	-7.3082
44.8449	-316.8000	-7.3067
44.9449	-316.8000	-7.3042
45.0451	-316.8000	-7.3008
45.1452	-316.8000	-7.2961
45.2457	-316.8000	-7.2928
45.3456	-316.8000	-7.2890
45.4452	-316.8000	-7.2844
45.5453	-316.8000	-7.2825
45.6455	-316.8000	-7.2785
45.7452	-316.8000	-7.2747
45.8454	-316.8000	-7.2727
45.9456	-316.8000	-7.2710
46.0452	-316.8000	-7.2652
46.1454	-316.8000	-7.2651
46.2452	-316.8000	-7.2645
46.3460	-316.8000	-7.2607
46.4460	-316.8000	-7.2595
46.5464	-316.8000	-7.2554
46.6465	-316.8000	-7.2548
46.7468	-316.8000	-7.2513
46.8466	-316.8000	-7.2491
46.9474	-316.8000	-7.2487
47.0469	-316.8000	-7.2470
47.1471	-316.8000	-7.2436
47.2474	-316.8000	-7.2405
47.3477	-316.8000	-7.2365
47.4479	-316.8000	-7.2342
47.5483	-316.8000	-7.2316
47.6485	-316.8000	-7.2285
47.7483	-316.8000	-7.2266
47.8480	-316.8000	-7.2194
47.9489	-316.8000	-7.2192
48.0490	-316.8000	-7.2195
48.1493	-316.8000	-7.2176
48.2493	-316.8000	-7.2129
48.3494	-316.8000	-7.2099
48.4501	-316.8000	-7.2083
48.5517	-316.8000	-7.2086
48.6516	-316.8000	-7.2033
48.7514	-316.8000	-7.2027
48.8524	-316.8000	-7.2003
48.9525	-316.8000	-7.1994
49.0522	-316.8000	-7.1916
49.1529	-316.8000	-7.1907
49.2532	-316.8000	-7.1897
49.3554	-316.8000	-7.1899
49.4560	-316.8000	-7.1857
49.5560	-316.8000	-7.1840
49.6574	-316.8000	-7.1826
49.7580	-316.8000	-7.1802
49.8584	-316.8000	-7.1808
49.9589	-316.8000	-7.1792
50.0597	-316.8000	-7.1771
50.1595	-316.8000	-7.1705
50.2589	-316.8000	-7.1695
50.3593	-316.8000	-7.1669
50.4598	-316.8000	-7.1660
50.5597	-316.8000	-7.1634
50.6596	-316.8000	-7.1624
50.7598	-316.8000	-7.1602
50.8594	-316.8000	-7.1600
50.9595	-316.8000	-7.1575
51.0596	-316.8000	-7.1544
51.1596	-316.8000	-7.1544
51.2599	-316.8000	-7.1529
51.3603	-316.8000	-7.1517
51.4610	-316.8000	-7.1488
51.5626	-316.8000	-7.1456
51.6620	-316.8000	-7.1445
51.7625	-316.8000	-7.1414
51.8633	-316.8000	-7.1396
51.9635	-316.8000	-7.1393
52.0636	-316.8000	-7.1347
52.1630	-316.8000	-7.1362
52.2643	-316.8000	-7.1329
52.3653	-316.8000	-7.1310
52.4653	-316.8000	-7.1306
52.5663	-316.8000	-7.1269
52.6660	-316.8000	-7.1219
52.7666	-316.8000	-7.1250
52.8676	-316.8000	-7.1248
52.9672	-316.8000	-7.1206
53.0674	-316.8000	-7.1186
53.1678	-316.8000	-7.1193
53.2670	-316.8000	-7.1176
53.3672	-316.8000	-7.1184
53.4671	-316.8000	-7.1134
53.5671	-316.8000	-7.1127
53.6674	-316.8000	-7.1090
53.7674	-316.8000	-7.1091
53.8670	-316.8000	-7.1084
53.9670	-316.8000	-7.1059
54.0673	-316.8000	-7.1014
54.1680	-316.8000	-7.1010
54.2690	-316.8000	-7.0995
54.3689	-316.8000	-7.0938
54.4693	-316.8000	-7.0937
54.5700	-316.8000	-7.0934
54.6699	-316.8000	-7.0923
54.7716	-316.8000	-7.0893
54.8713	-316.8000	-7.0895
54.9712	-316.8000	-7.0880
55.0710	-316.8000	-7.0861
55.1712	-316.8000	-7.0848
55.2713	-316.8000	-7.0832
55.3713	-316.8000	-7.0815
55.4712	-316.8000	-7.0814
55.5712	-316.8000	-7.0787
55.6712	-316.8000	-7.0778
55.7712	-316.8000	-7.0771
55.8714	-316.8000	-7.0762
55.9712	-316.8000	-7.0728
56.0713	-316.8000	-7.0745
56.1712	-316.8000	-7.0741
56.2709	-316.8000	-7.0705
56.3717	-316.8000	-7.0702
56.4714	-316.8000	-7.0716
56.5714	-316.8000	-7.0672
56.6711	-316.8000	-7.0655
56.7718	-316.8000	-7.0629
56.8725	-316.8000	-7.0647
56.9727	-316.8000	-7.0583
57.0720	-316.8000	-7.0609
57.1726	-316.8000	-7.0575
57.2732	-316.8000	-7.0565
57.3735	-316.8000	-7.0542
57.4735	-316.8000	-7.0551
57.5733	-316.8000	-7.0522
57.6756	-316.8000	-7.0510
57.7755	-316.8000	-7.0509
57.8751	-316.8000	-7.0470
57.9750	-316.8000	-7.0483
58.0767	-316.8000	-7.0494
58.1760	-316.8000	-7.0442
58.2778	-316.8000	-7.0450
58.3789	-316.8000	-7.0443
58.4785	-316.8000	-7.0423
58.5785	-316.8000	-7.0455
58.6784	-316.8000	-7.0429
58.7799	-316.8000	-7.0421
58.8798	-316.8000	-7.0400
58.9794	-316.8000	-7.0391
59.0794	-316.8000	-7.0359
59.1809	-316.8000	-7.0371
59.2800	-316.8000	-7.0355
59.3812	-316.8000	-7.0336
59.4813	-316.8000	-7.0320
59.5816	-316.8000	-7.0337
59.6827	-316.8000	-7.0304
59.7832	-316.8000	-7.0292
59.8836	-316.8000	-7.0279
59.9836	-316.8000	-7.0294
60.0831	-316.8000	-7.0250
60.1835	-316.8000	-7.0249
60.2835	-316.8000	-7.0201
60.3837	-316.8000	-7.0202
60.4831	-316.8000	-7.0201
60.5846	-316.8000	-7.0180
60.6852	-316.8000	-7.0188
60.7858	-316.8000	-7.0189
60.8865	-316.8000	-7.0150
60.9867	-316.8000	-7.0160
61.0871	-316.8000	-7.0135
61.1872	-316.8000	-7.0140
61.2870	-316.8000	-7.0148
61.3870	-316.8000	-7.0129
61.4877	-316.8000	-7.0123
61.5883	-316.8000	-7.0112
61.6876	-316.8000	-7.0085
61.7886	-316.8000	-7.0072
61.8889	-316.8000	-7.0046
61.9884	-316.8000	-7.0058
62.0883	-316.8000	-7.0026
62.1883	-316.8000	-6.9993
62.2882	-316.8000	-6.9989
62.3885	-316.8000	-6.9960
62.4889	-316.8000	-6.9980
62.5889	-316.8000	-6.9988
62.6890	-316.8000	-6.9962
62.7898	-316.8000	-6.9936
62.8901	-316.8000	-6.9930
62.9908	-316.8000	-6.9938
63.0908	-316.8000	-6.9966
63.1917	-316.8000	-6.9911
63.2913	-316.8000	-6.9914
63.3927	-316.8000	-6.9887
63.4927	-316.8000	-6.9879
63.5930	-316.8000	-6.9869
63.6937	-316.8000	-6.9840
63.7942	-316.8000	-6.9830
63.8945	-316.8000	-6.9828
63.9949	-316.8000	-6.9828
64.0944	-316.8000	-6.9857
64.1944	-316.8000	-6.9816
64.2944	-316.8000	-6.9781
64.3946	-316.8000	-6.9762
64.4950	-316.8000	-6.9785
64.5948	-316.8000	-6.9808
64.6942	-316.8000	-6.9774
64.7956	-316.8000	-6.9765
64.8961	-316.8000	-6.9764
64.9968	-316.8000	-6.9750
65.0960	-316.8000	-6.9734
65.1972	-316.8000	-6.9688
65.2975	-316.8000	-6.9710
65.3981	-316.8000	-6.9708
65.4999	-316.8000	-6.9699
65.5991	-316.8000	-6.9681
65.6994	-316.8000	-6.9699
65.7994	-316.8000	-6.9683
65.8996	-316.8000	-6.9661
66.0006	-316.8000	-6.9686
66.1016	-316.8000	-6.9674
66.2018	-316.8000	-6.9636
66.3014	-316.8000	-6.9602
66.4013	-316.8000	-6.9618
66.5026	-316.8000	-6.9572
66.6035	-316.8000	-6.9569
66.7046	-316.8000	-6.9548
66.8043	-316.8000	-6.9526
66.9046	-316.8000	-6.9575
67.0044	-316.8000	-6.9543
67.1041	-316.8000	-6.9545
67.2044	-316.8000	-6.9532
67.3045	-316.8000	-6.9485
67.4045	-316.8000	-6.9520
67.5056	-316.8000	-6.9477
67.6065	-316.8000	-6.9476
67.7066	-316.8000	-6.9462
67.8069	-316.8000	-6.9475
67.9077	-316.8000	-6.9451
68.0080	-316.8000	-6.9436
68.1090	-316.8000	-6.9449
68.2091	-316.8000	-6.9446
68.3092	-316.8000	-6.9424
68.4092	-316.8000	-6.9422
68.5110	-316.8000	-6.9418
68.6108	-316.8000	-6.9407
68.7116	-316.8000	-6.9401
68.8114	-316.8000	-6.9407
68.9127	-316.8000	-6.9390
69.0121	-316.8000	-6.9384
69.1126	-316.8000	-6.9363
69.2135	-316.8000	-6.9373
69.3136	-316.8000	-6.9358
69.4133	-316.8000	-6.9339
69.5134	-316.8000	-6.9351
69.6134	-316.8000	-6.9325
69.7136	-316.8000	-6.9317
69.8135	-316.8000	-6.9300
69.9138	-316.8000	-6.9317
70.0137	-316.8000	-6.9306
70.1134	-316.8000	-6.9270
70.2138	-316.8000	-6.9270
70.3138	-316.8000	-6.9293
70.4138	-316.8000	-6.9254
70.5138	-316.8000	-6.9288
70.6138	-316.8000	-6.9212
70.7138	-316.8000	-6.9239
70.8138	-316.8000	-6.9248
70.9136	-316.8000	-6.9253
71.0135	-316.8000	-6.9227
71.1135	-316.8000	-6.9241
71.2134	-316.8000	-6.9213
71.3136	-316.8000	-6.9183
71.4137	-316.8000	-6.9194
71.5133	-316.8000	-6.9187
71.6137	-316.8000	-6.9156
71.7136	-316.8000	-6.9167
71.8136	-316.8000	-6.9151
71.9136	-316.8000	-6.9170
72.0133	-316.8000	-6.9143
72.1136	-316.8000	-6.9139
72.2138	-316.8000	-6.9147
72.3148	-316.8000	-6.9172
72.4142	-316.8000	-6.9146
72.5146	-316.8000	-6.9151
72.6157	-316.8000	-6.9113
72.7166	-316.8000	-6.9115
72.8166	-316.8000	-6.9047
72.9169	-316.8000	-6.9079
73.0161	-316.8000	-6.9072
73.1180	-316.8000	-6.9066
73.2182	-316.8000	-6.9032
73.3187	-316.8000	-6.9054
73.4200	-316.8000	-6.9038
73.5200	-316.8000	-6.9043
73.6197	-316.8000	-6.9005
73.7205	-316.8000	-6.9020
73.8211	-316.8000	-6.9031
73.9230	-316.8000	-6.9056
74.0236	-316.8000	-6.9014
74.1235	-316.8000	-6.8998
74.2237	-316.8000	-6.9021
74.3234	-316.8000	-6.8990
74.4235	-316.8000	-6.8969
74.5248	-316.8000	-6.8982
74.6242	-316.8000	-6.8999
74.7253	-316.8000	-6.8964
74.8259	-316.8000	-6.8940
74.9257	-316.8000	-6.8911
75.0258	-316.8000	-6.8926
75.1263	-316.8000	-6.8935
75.2275	-316.8000	-6.8973
75.3269	-316.8000	-6.8950
75.4264	-316.8000	-6.8889
75.5278	-316.8000	-6.8895
75.6281	-316.8000	-6.8904
75.7283	-316.8000	-6.8864
75.8296	-316.8000	-6.8904
75.9300	-316.8000	-6.8911
76.0296	-316.8000	-6.8867
76.1310	-316.8000	-6.8887
76.2316	-316.8000	-6.8838
76.3319	-316.8000	-6.8827
76.4314	-316.8000	-6.8824
76.5312	-316.8000	-6.8814
76.6316	-316.8000	-6.8818
76.7313	-316.8000	-6.8848
76.8313	-316.8000	-6.8815
76.9312	-316.8000	-6.8819
77.0314	-316.8000	-6.8775
77.1315	-316.8000	-6.8777
77.2314	-316.8000	-6.8787
77.3312	-316.8000	-6.8790
77.4314	-316.8000	-6.8767
77.5312	-316.8000	-6.8772
77.6319	-316.8000	-6.8767
77.7317	-316.8000	-6.8726
77.8313	-316.8000	-6.8719
77.9312	-316.8000	-6.8766
78.0314	-316.8000	-6.8733
78.1314	-316.8000	-6.8721
78.2315	-316.8000	-6.8703
78.3314	-316.8000	-6.8711
78.4315	-316.8000	-6.8695
78.5314	-316.8000	-6.8711
78.6315	-316.8000	-6.8702
78.7312	-316.8000	-6.8696
78.8317	-316.8000	-6.8718
78.9327	-316.8000	-6.8674
79.0322	-316.8000	-6.8661
79.1340	-316.8000	-6.8680
79.2338	-316.8000	-6.8665
79.3335	-316.8000	-6.8636
79.4358	-316.8000	-6.8645
79.5352	-316.8000	-6.8647
79.6360	-316.8000	-6.8637
79.7355	-316.8000	-6.8648
79.8357	-316.8000	-6.8623
79.9358	-316.8000	-6.8605
80.0357	-316.8000	-6.8622
80.1358	-316.8000	-6.8589
80.2356	-316.8000	-6.8616
80.3358	-316.8000	-6.8608
80.4369	-316.8000	-6.8565
80.5362	-316.8000	-6.8576
80.6377	-316.8000	-6.8595
80.7385	-316.8000	-6.8574
80.8396	-316.8000	-6.8554
80.9391	-316.8000	-6.8566
81.0402	-316.8000	-6.8526
81.1406	-316.8000	-6.8537
81.2402	-316.8000	-6.8545
81.3417	-316.8000	-6.8535
81.4415	-316.8000	-6.8496
81.5417	-316.8000	-6.8511
81.6427	-316.8000	-6.8497
81.7435	-316.8000	-6.8518
81.8434	-316.8000	-6.8533
81.9435	-316.8000	-6.8482
82.0437	-316.8000	-6.8460
82.1433	-316.8000	-6.8486
82.2434	-316.8000	-6.8499
82.3450	-316.8000	-6.8488
82.4459	-316.8000	-6.8452
82.5466	-316.8000	-6.8448
82.6473	-316.8000	-6.8452
82.7477	-316.8000	-6.8449
82.8475	-316.8000	-6.8461
82.9473	-316.8000	-6.8448
83.0474	-316.8000	-6.8421
83.1480	-316.8000	-6.8404
83.2481	-316.8000	-6.8404
83.3477	-316.8000	-6.8410
83.4478	-316.8000	-6.8412
83.5482	-316.8000	-6.8407
83.6488	-316.8000	-6.8372
83.7482	-316.8000	-6.8376
83.8498	-316.8000	-6.8375
83.9492	-316.8000	-6.8389
84.0492	-316.8000	-6.8409
84.1509	-316.8000	-6.8383
84.2510	-316.8000	-6.8390
84.3504	-316.8000	-6.8345
84.4507	-316.8000	-6.8349
84.5510	-316.8000	-6.8318
84.6507	-316.8000	-6.8332
84.7509	-316.8000	-6.8351
84.8511	-316.8000	-6.8348
84.9513	-316.8000	-6.8335
85.0521	-316.8000	-6.8317
85.1522	-316.8000	-6.8317
85.2529	-316.8000	-6.8279
85.3530	-316.8000	-6.8328
85.4536	-316.8000	-6.8299
85.5534	-316.8000	-6.8310
85.6542	-316.8000	-6.8284
85.7536	-316.8000	-6.8285
85.8535	-316.8000	-6.8274
85.9537	-316.8000	-6.8295
86.0534	-316.8000	-6.8272
86.1537	-316.8000	-6.8293
86.2534	-316.8000	-6.8261
86.3535	-316.8000	-6.8265
86.4538	-316.8000	-6.8253
86.5539	-316.8000	-6.8261
86.6539	-316.8000	-6.8236
86.7540	-316.8000	-6.8275
86.8540	-316.8000	-6.8248
86.9542	-316.8000	-6.8245
87.0550	-316.8000	-6.8236
87.1548	-316.8000	-6.8267
87.2551	-316.8000	-6.8243
87.3543	-316.8000	-6.8240
87.4549	-316.8000	-6.8231
87.5550	-316.8000	-6.8235
87.6543	-316.8000	-6.8273
87.7548	-316.8000	-6.8227
87.8559	-316.8000	-6.8231
87.9557	-316.8000	-6.8211
88.0553	-316.8000	-6.8195
88.1559	-316.8000	-6.8141
88.2556	-316.8000	-6.8170
88.3554	-316.8000	-6.8176
88.4556	-316.8000	-6.8137
88.5557	-316.8000	-6.8163
88.6558	-316.8000	-6.8131
88.7557	-316.8000	-6.8144
88.8572	-316.8000	-6.8123
88.9566	-316.8000	-6.8114
89.0562	-316.8000	-6.8104
89.1568	-316.8000	-6.8089
89.2562	-316.8000	-6.8075
89.3569	-316.8000	-6.8078
89.4564	-316.8000	-6.8092
89.5572	-316.8000	-6.8102
89.6583	-316.8000	-6.8091
89.7584	-316.8000	-6.8061
89.8602	-316.8000	-6.8090
89.9616	-316.8000	-6.8075
90.0614	-316.8000	-6.8056
90.1615	-316.8000	-6.8072
90.2628	-316.8000	-6.8064
90.3637	-316.8000	-6.8059
90.4638	-316.8000	-6.8030
90.5651	-316.8000	-6.8043
90.6648	-316.8000	-6.8046
90.7651	-316.8000	-6.8044
90.8648	-316.8000	-6.8035
90.9643	-316.8000	-6.8038
91.0647	-316.8000	-6.8019
91.1646	-316.8000	-6.8009
91.2651	-316.8000	-6.8002
91.3646	-316.8000	-6.8027
91.4651	-316.8000	-6.8017
91.5651	-316.8000	-6.7999
91.6645	-316.8000	-6.7989
91.7645	-316.8000	-6.7986
91.8661	-316.8000	-6.8006
91.9659	-316.8000	-6.8008
92.0657	-316.8000	-6.8016
92.1661	-316.8000	-6.7976
92.2663	-316.8000	-6.8014
92.3664	-316.8000	-6.7970
92.4668	-316.8000	-6.7984
92.5671	-316.8000	-6.7950
92.6672	-316.8000	-6.7980
92.7673	-316.8000	-6.7925
92.8683	-316.8000	-6.7933
92.9684	-316.8000	-6.7932
93.0686	-316.8000	-6.7896
93.1692	-316.8000	-6.7893
93.2693	-316.8000	-6.7887
93.3703	-316.8000	-6.7904
93.4705	-316.8000	-6.7892
93.5702	-316.8000	-6.7879
93.6710	-316.8000	-6.7876
93.7713	-316.8000	-6.7918
93.8720	-316.8000	-6.7881
93.9715	-316.8000	-6.7898
94.0716	-316.8000	-6.7893
94.1716	-316.8000	-6.7889
94.2729	-316.8000	-6.7875
94.3725	-316.8000	-6.7881
94.4732	-316.8000	-6.7905
94.5736	-316.8000	-6.7880
94.6739	-316.8000	-6.7884
94.7740	-316.8000	-6.7879
94.8750	-316.8000	-6.7868
94.9754	-316.8000	-6.7833
95.0764	-316.8000	-6.7812
95.1765	-316.8000	-6.7835
95.2773	-316.8000	-6.7848
95.3783	-316.8000	-6.7853
95.4789	-316.8000	-6.7848
95.5793	-316.8000	-6.7854
95.6802	-316.8000	-6.7833
95.7793	-316.8000	-6.7793
95.8797	-316.8000	-6.7863
95.9802	-316.8000	-6.7798
96.0808	-316.8000	-6.7756
96.1810	-316.8000	-6.7787
96.2803	-316.8000	-6.7801
96.3813	-316.8000	-6.7800
96.4817	-316.8000	-6.7790
96.5828	-316.8000	-6.7795
96.6829	-316.8000	-6.7778
96.7832	-316.8000	-6.7772
96.8828	-316.8000	-6.7785
96.9828	-316.8000	-6.7779
97.0837	-316.8000	-6.7779
97.1849	-316.8000	-6.7765
97.2845	-316.8000	-6.7747
97.3847	-316.8000	-6.7741
97.4852	-316.8000	-6.7768
97.5853	-316.8000	-6.7748
97.6867	-316.8000	-6.7737
97.7874	-316.8000	-6.7733
97.8890	-316.8000	-6.7736
97.9898	-316.8000	-6.7769
98.0899	-316.8000	-6.7725
98.1901	-316.8000	-6.7694
98.2900	-316.8000	-6.7719
98.3898	-316.8000	-6.7681
98.4905	-316.8000	-6.7721
98.5907	-316.8000	-6.7675
98.6911	-316.8000	-6.7704
98.7911	-316.8000	-6.7722
98.8922	-316.8000	-6.7683
98.9916	-316.8000	-6.7683
99.0914	-316.8000	-6.7687
99.1919	-316.8000	-6.7686
99.2916	-316.8000	-6.7699
99.3916	-316.8000	-6.7696
99.4914	-316.8000	-6.7644
99.5928	-316.8000	-6.7661
99.6933	-316.8000	-6.7656
99.7924	-316.8000	-6.7632
99.8942	-316.8000	-6.7661
99.9939	-316.8000	-6.7653
100.0938	-316.8000	-6.7645
100.1938	-316.8000	-6.7632
100.2938	-316.8000	-6.7618
100.3940	-316.8000	-6.7646
100.4939	-316.8000	-6.7634
100.5938	-316.8000	-6.7630
100.6940	-316.8000	-6.7604
100.7945	-316.8000	-6.7610
100.8944	-316.8000	-6.7619
100.9950	-316.8000	-6.7616
101.0951	-316.8000	-6.7604
101.1947	-316.8000	-6.7616
101.2953	-316.8000	-6.7595
101.3951	-316.8000	-6.7606
101.4953	-316.8000	-6.7591
101.5952	-316.8000	-6.7579
101.6947	-316.8000	-6.7595
101.7951	-316.8000	-6.7559
101.8944	-316.8000	-6.7583
101.9951	-316.8000	-6.7577
102.0948	-316.8000	-6.7574
102.1951	-316.8000	-6.7564
102.2953	-316.8000	-6.7541
102.3959	-316.8000	-6.7540
102.4961	-316.8000	-6.7537
102.5964	-316.8000	-6.7529
102.6978	-316.8000	-6.7533
102.7982	-316.8000	-6.7559
102.8986	-316.8000	-6.7545
102.9985	-316.8000	-6.7503
103.0989	-316.8000	-6.7501
103.1989	-316.8000	-6.7495
103.2989	-316.8000	-6.7502
103.3998	-316.8000	-6.7493
103.5004	-316.8000	-6.7507
103.6005	-316.8000	-6.7510
103.7012	-316.8000	-6.7515
103.8008	-316.8000	-6.7503
103.9005	-316.8000	-6.7491
104.0020	-316.8000	-6.7490
104.1015	-316.8000	-6.7490
104.2019	-316.8000	-6.7467
104.3019	-316.8000	-6.7469
104.4014	-316.8000	-6.7485
104.5029	-316.8000	-6.7485
104.6029	-316.8000	-6.7452
104.7041	-316.8000	-6.7459
104.8037	-316.8000	-6.7424
104.9039	-316.8000	-6.7433
105.0040	-316.8000	-6.7401
105.1040	-316.8000	-6.7433
105.2037	-316.8000	-6.7438
105.3045	-316.8000	-6.7459
105.4047	-316.8000	-6.7420
105.5046	-316.8000	-6.7445
105.6046	-316.8000	-6.7442
105.7057	-316.8000	-6.7398
105.8060	-316.8000	-6.7429
105.9062	-316.8000	-6.7405
106.0067	-316.8000	-6.7423
106.1072	-316.8000	-6.7406
106.2065	-316.8000	-6.7413
106.3069	-316.8000	-6.7388
106.4066	-316.8000	-6.7379
106.5073	-316.8000	-6.7388
106.6073	-316.8000	-6.7345
106.7070	-316.8000	-6.7362
106.8073	-316.8000	-6.7353
106.9076	-316.8000	-6.7384
107.0092	-316.8000	-6.7384
107.1088	-316.8000	-6.7343
107.2091	-316.8000	-6.7327
107.3089	-316.8000	-6.7340
107.4085	-316.8000	-6.7336
107.5084	-316.8000	-6.7345
107.6087	-316.8000	-6.7351
107.7091	-316.8000	-6.7361
107.8086	-316.8000	-6.7341
107.9092	-316.8000	-6.7356
108.0101	-316.8000	-6.7323
108.1099	-316.8000	-6.7309
108.2104	-316.8000	-6.7340
108.3109	-316.8000	-6.7331
108.4110	-316.8000	-6.7312
108.5109	-316.8000	-6.7299
108.6111	-316.8000	-6.7313
108.7109	-316.8000	-6.7301
108.8110	-316.8000	-6.7307
108.9105	-316.8000	-6.7284
109.0117	-316.8000	-6.7289
109.1125	-316.8000	-6.7302
109.2125	-316.8000	-6.7286
109.3127	-316.8000	-6.7270
109.4131	-316.8000	-6.7258
109.5130	-316.8000	-6.7278
109.6128	-316.8000	-6.7307
109.7127	-316.8000	-6.7244
109.8126	-316.8000	-6.7289
109.9129	-316.8000	-6.7258
110.0132	-316.8000	-6.7220
110.1132	-316.8000	-6.7246
110.2141	-316.8000	-6.7222
110.3140	-316.8000	-6.7232
110.4138	-316.8000	-6.7217
110.5138	-316.8000	-6.7256
110.6134	-316.8000	-6.7251
110.7137	-316.8000	-6.7231
110.8147	-316.8000	-6.7219
110.9146	-316.8000	-6.7201
111.0144	-316.8000	-6.7210
111.1159	-316.8000	-6.7177
111.2174	-316.8000	-6.7203
111.3169	-316.8000	-6.7189
111.4179	-316.8000	-6.7180
111.5180	-316.8000	-6.7217
111.6181	-316.8000	-6.7177
111.7193	-316.8000	-6.7173
111.8186	-316.8000	-6.7161
111.9200	-316.8000	-6.7201
112.0199	-316.8000	-6.7178
112.1199	-316.8000	-6.7192
112.2203	-316.8000	-6.7168
112.3206	-316.8000	-6.7144
112.4212	-316.8000	-6.7144
112.5209	-316.8000	-6.7164
112.6210	-316.8000	-6.7145
112.7209	-316.8000	-6.7182
112.8208	-316.8000	-6.7167
112.9209	-316.8000	-6.7145
113.0206	-316.8000	-6.7114
113.1211	-316.8000	-6.7165
113.2219	-316.8000	-6.7156
113.3229	-316.8000	-6.7113
113.4235	-316.8000	-6.7119
113.5238	-316.8000	-6.7149
113.6239	-316.8000	-6.7123
113.7239	-316.8000	-6.7139
113.8252	-316.8000	-6.7103
113.9247	-316.8000	-6.7114
114.0251	-316.8000	-6.7089
114.1247	-316.8000	-6.7113
114.2259	-316.8000	-6.7109
114.3263	-316.8000	-6.7120
114.4265	-316.8000	-6.7093
114.5276	-316.8000	-6.7107
114.6280	-316.8000	-6.7072
114.7278	-316.8000	-6.7094
114.8275	-316.8000	-6.7091
114.9282	-316.8000	-6.7065
115.0285	-316.8000	-6.7087
115.1289	-316.8000	-6.7075
115.2294	-316.8000	-6.7078
115.3295	-316.8000	-6.7093
115.4295	-316.8000	-6.7082
115.5305	-316.8000	-6.7075
115.6313	-316.8000	-6.7046
115.7313	-316.8000	-6.7051
115.8314	-316.8000	-6.7076
115.9323	-316.8000	-6.7078
116.0317	-316.8000	-6.7067
116.1324	-316.8000	-6.7057
116.2316	-316.8000	-6.7036
116.3318	-316.8000	-6.7002
116.4318	-316.8000	-6.7029
116.5318	-316.8000	-6.7021
116.6325	-316.8000	-6.7004
116.7335	-316.8000	-6.7022
116.8341	-316.8000	-6.7019
116.9341	-316.8000	-6.7037
117.0339	-316.8000	-6.7040
117.1350	-316.8000	-6.7006
117.2352	-316.8000	-6.7015
117.3348	-316.8000	-6.7012
117.4359	-316.8000	-6.7004
117.5367	-316.8000	-6.6998
117.6374	-316.8000	-6.7022
117.7366	-316.8000	-6.7003
117.8374	-316.8000	-6.6999
117.9375	-316.8000	-6.7005
118.0376	-316.8000	-6.6993
118.1383	-316.8000	-6.7030
118.2384	-316.8000	-6.6984
118.3379	-316.8000	-6.6992
118.4390	-316.8000	-6.6989
118.5390	-316.8000	-6.6959
118.6385	-316.8000	-6.6946
118.7386	-316.8000	-6.6997
118.8396	-316.8000	-6.6977
118.9405	-316.8000	-6.6969
119.0422	-316.8000	-6.6979
119.1432	-316.8000	-6.6975
119.2440	-316.8000	-6.6955
119.3439	-316.8000	-6.6965
119.4435	-316.8000	-6.6924
119.5449	-316.8000	-6.6968
119.6446	-316.8000	-6.6970
119.7454	-316.8000	-6.6940
119.8459	-316.8000	-6.6925
119.9469	-316.8000	-6.6936
120.0467	-316.8000	-6.6929
120.1467	-316.8000	-6.6920
120.2485	-316.8000	-6.6924
120.3481	-316.8000	-6.6918
120.4486	-316.8000	-6.6928
120.5500	-316.8000	-6.6925
120.6499	-316.8000	-6.6898
120.7502	-316.8000	-6.6900
120.8500	-316.8000	-6.6915
120.9511	-316.8000	-6.6871
121.0507	-316.8000	-6.6884
121.1509	-316.8000	-6.6888
121.2514	-316.8000	-6.6896
121.3520	-316.8000	-6.6902
121.4520	-316.8000	-6.6878
121.5519	-316.8000	-6.6875
121.6515	-316.8000	-6.6844
121.7518	-316.8000	-6.6850
121.8519	-316.8000	-6.6847
121.9526	-316.8000	-6.6855
122.0526	-316.8000	-6.6870
122.1530	-316.8000	-6.6864
122.2529	-316.8000	-6.6864
122.3532	-316.8000	-6.6862
122.4543	-316.8000	-6.6840
122.5543	-316.8000	-6.6854
122.6539	-316.8000	-6.6873
122.7540	-316.8000	-6.6850
122.8541	-316.8000	-6.6859
122.9543	-316.8000	-6.6849
123.0542	-316.8000	-6.6815
123.1537	-316.8000	-6.6829
123.2543	-316.8000	-6.6834
123.3540	-316.8000	-6.6837
123.4541	-316.8000	-6.6831
123.5540	-316.8000	-6.6848
123.6543	-316.8000	-6.6838
123.7535	-316.8000	-6.6807
123.8543	-316.8000	-6.6827
123.9542	-316.8000	-6.6820
124.0542	-316.8000	-6.6834
124.1543	-316.8000	-6.6844
124.2543	-316.8000	-6.6814
124.3545	-316.8000	-6.6779
124.4555	-316.8000	-6.6778
124.5563	-316.8000	-6.6808
124.6560	-316.8000	-6.6821
124.7572	-316.8000	-6.6788
124.8569	-316.8000	-6.6808
124.9574	-316.8000	-6.6784
125.0573	-316.8000	-6.6781
125.1578	-316.8000	-6.6791
125.2580	-316.8000	-6.6819
125.3594	-316.8000	-6.6810
125.4586	-316.8000	-6.6755
125.5590	-316.8000	-6.6743
125.6586	-316.8000	-6.6753
125.7591	-316.8000	-6.6751
125.8589	-316.8000	-6.6764
125.9588	-316.8000	-6.6765
126.0591	-316.8000	-6.6743
126.1601	-316.8000	-6.6737
126.2605	-316.8000	-6.6743
126.3600	-316.8000	-6.6746
126.4596	-316.8000	-6.6780
126.5605	-316.8000	-6.6760
126.6601	-316.8000	-6.6750
126.7601	-316.8000	-6.6745
126.8606	-316.8000	-6.6773
126.9613	-316.8000	-6.6758
127.0625	-316.8000	-6.6757
127.1616	-316.8000	-6.6726
127.2616	-316.8000	-6.6732
127.3619	-316.8000	-6.6731
127.4631	-316.8000	-6.6723
127.5640	-316.8000	-6.6718
127.6639	-316.8000	-6.6709
127.7653	-316.8000	-6.6706
127.8652	-316.8000	-6.6719
127.9662	-316.8000	-6.6692
128.0662	-316.8000	-6.6711
128.1657	-316.8000	-6.6689
128.2664	-316.8000	-6.6698
128.3670	-316.8000	-6.6694
128.4684	-316.8000	-6.6711
128.5679	-316.8000	-6.6679
128.6682	-316.8000	-6.6675
128.7683	-316.8000	-6.6677
128.8681	-316.8000	-6.6690
128.9689	-316.8000	-6.6686
129.0689	-316.8000	-6.6673
129.1688	-316.8000	-6.6654
129.2691	-316.8000	-6.6636
129.3686	-316.8000	-6.6640
129.4691	-316.8000	-6.6660
129.5686	-316.8000	-6.6637
129.6688	-316.8000	-6.6651
129.7696	-316.8000	-6.6652
129.8694	-316.8000	-6.6629
129.9695	-316.8000	-6.6608
130.0696	-316.8000	-6.6651
130.1697	-316.8000	-6.6595
130.2702	-316.8000	-6.6626
130.3706	-316.8000	-6.6606
130.4698	-316.8000	-6.6639
130.5703	-316.8000	-6.6625
130.6702	-316.8000	-6.6664
130.7699	-316.8000	-6.6633
130.8696	-316.8000	-6.6634
130.9699	-316.8000	-6.6624
131.0705	-316.8000	-6.6624
131.1700	-316.8000	-6.6610
131.2703	-316.8000	-6.6612
131.3705	-316.8000	-6.6549
131.4704	-316.8000	-6.6609
131.5700	-316.8000	-6.6651
131.6713	-316.8000	-6.6580
131.7721	-316.8000	-6.6591
131.8718	-316.8000	-6.6556
131.9719	-316.8000	-6.6598
132.0726	-316.8000	-6.6590
132.1718	-316.8000	-6.6635
132.2726	-316.8000	-6.6602
132.3719	-316.8000	-6.6579
132.4727	-316.8000	-6.6533
132.5740	-316.8000	-6.6535
132.6740	-316.8000	-6.6565
132.7743	-316.8000	-6.6553
132.8740	-316.8000	-6.6576
132.9740	-316.8000	-6.6559
133.0741	-316.8000	-6.6545
133.1742	-316.8000	-6.6531
133.2742	-316.8000	-6.6569
133.3740	-316.8000	-6.6532
133.4741	-316.8000	-6.6547
133.5737	-316.8000	-6.6593
133.6740	-316.8000	-6.6567
133.7738	-316.8000	-6.6547
133.8756	-316.8000	-6.6544
133.9756	-316.8000	-6.6510
134.0760	-316.8000	-6.6546
134.1765	-316.8000	-6.6497
134.2760	-316.8000	-6.6488
134.3757	-316.8000	-6.6543
134.4766	-316.8000	-6.6485
134.5757	-316.8000	-6.6479
134.6760	-316.8000	-6.6502
134.7776	-316.8000	-6.6538
134.8767	-316.8000	-6.6519
134.9777	-316.8000	-6.6497
135.0800	-316.8000	-6.6525
135.1796	-316.8000	-6.6518
135.2788	-316.8000	-6.6481
135.3788	-316.8000	-6.6494
135.4786	-316.8000	-6.6513
135.5790	-316.8000	-6.6498
135.6793	-316.8000	-6.6514
135.7789	-316.8000	-6.6494
135.8797	-316.8000	-6.6585
135.9816	-316.8000	-6.6507
136.0809	-316.8000	-6.6557
136.1809	-316.8000	-6.6502
136.2817	-316.8000	-6.6525
136.3820	-316.8000	-6.6534
136.4820	-316.8000	-6.6503
136.5826	-316.8000	-6.6502
136.6817	-316.8000	-6.6477
136.7820	-316.8000	-6.6483
136.8820	-316.8000	-6.6545
136.9820	-316.8000	-6.6467
137.0820	-316.8000	-6.6428
137.1820	-316.8000	-6.6422
137.2836	-316.8000	-6.6466
137.3834	-316.8000	-6.6485
137.4836	-316.8000	-6.6451
137.5836	-316.8000	-6.6456
137.6844	-316.8000	-6.6432
137.7843	-316.8000	-6.6443
137.8843	-316.8000	-6.6483
137.9838	-316.8000	-6.6471
138.0840	-316.8000	-6.6463
138.1844	-316.8000	-6.6487
138.2842	-316.8000	-6.6415
138.3838	-316.8000	-6.6447
138.4843	-316.8000	-6.6432
138.5843	-316.8000	-6.6392
138.6844	-316.8000	-6.6399
138.7844	-316.8000	-6.6427
138.8838	-316.8000	-6.6406
138.9839	-316.8000	-6.6464
139.0854	-316.8000	-6.6359
139.1859	-316.8000	-6.6404
139.2860	-316.8000	-6.6411
139.3857	-316.8000	-6.6392
139.4876	-316.8000	-6.6376
139.5873	-316.8000	-6.6404
139.6869	-316.8000	-6.6378
139.7881	-316.8000	-6.6332
139.8891	-316.8000	-6.6386
139.9902	-316.8000	-6.6381
140.0900	-316.8000	-6.6387
140.1906	-316.8000	-6.6390
140.2903	-316.8000	-6.6353
140.3904	-316.8000	-6.6372
140.4920	-316.8000	-6.6390
140.5928	-316.8000	-6.6339
140.6927	-316.8000	-6.6387
140.7944	-316.8000	-6.6350
140.8947	-316.8000	-6.6361
140.9960	-316.8000	-6.6348
141.0957	-316.8000	-6.6396
141.1961	-316.8000	-6.6360
141.2962	-316.8000	-6.6393
141.3964	-316.8000	-6.6382
141.4964	-316.8000	-6.6358
141.5970	-316.8000	-6.6369
141.6970	-316.8000	-6.6325
141.7971	-316.8000	-6.6358
141.8973	-316.8000	-6.6342
141.9968	-316.8000	-6.6361
142.0968	-316.8000	-6.6329
142.1972	-316.8000	-6.6362
142.2967	-316.8000	-6.6286
142.3967	-316.8000	-6.6344
142.4975	-316.8000	-6.6320
142.5976	-316.8000	-6.6352
142.6971	-316.8000	-6.6359
142.7971	-316.8000	-6.6365
142.8967	-316.8000	-6.6340
142.9971	-316.8000	-6.6348
143.0972	-316.8000	-6.6362
143.1972	-316.8000	-6.6304
143.2979	-316.8000	-6.6314
143.3979	-316.8000	-6.6324
143.4994	-316.8000	-6.6299
143.5997	-316.8000	-6.6324
143.6997	-316.8000	-6.6300
143.7989	-316.8000	-6.6321
143.8987	-316.8000	-6.6317
143.9998	-316.8000	-6.6319
144.1003	-316.8000	-6.6280
144.2004	-316.8000	-6.6283
144.3008	-316.8000	-6.6271
144.4014	-316.8000	-6.6251
144.5015	-316.8000	-6.6259
144.6015	-316.8000	-6.6281
144.7020	-316.8000	-6.6282
144.8019	-316.8000	-6.6301
144.9022	-316.8000	-6.6306
145.0020	-316.8000	-6.6299
145.1020	-316.8000	-6.6281
145.2021	-316.8000	-6.6259
145.3028	-316.8000	-6.6271
145.4038	-316.8000	-6.6277
145.5039	-316.8000	-6.6264
145.6044	-316.8000	-6.6253
145.7040	-316.8000	-6.6262
145.8043	-316.8000	-6.6266
145.9045	-316.8000	-6.6250
146.0044	-316.8000	-6.6255
146.1044	-316.8000	-6.6323
146.2051	-316.8000	-6.6250
146.3048	-316.8000	-6.6221
146.4048	-316.8000	-6.6272
146.5053	-316.8000	-6.6250
146.6066	-316.8000	-6.6250
146.7063	-316.8000	-6.6252
146.8059	-316.8000	-6.6228
146.9070	-316.8000	-6.6224
147.0071	-316.8000	-6.6246
147.1075	-316.8000	-6.6233
147.2070	-316.8000	-6.6284
147.3082	-316.8000	-6.6248
147.4079	-316.8000	-6.6217
147.5095	-316.8000	-6.6247
147.6098	-316.8000	-6.6196
147.7106	-316.8000	-6.6182
147.8103	-316.8000	-6.6210
147.9104	-316.8000	-6.6216
148.0101	-316.8000	-6.6223
148.1102	-316.8000	-6.6199
148.2102	-316.8000	-6.6191
148.3102	-316.8000	-6.6216
148.4122	-316.8000	-6.6193
148.5118	-316.8000	-6.6168
148.6118	-316.8000	-6.6205
148.7133	-316.8000	-6.6185
148.8142	-316.8000	-6.6209
148.9143	-316.8000	-6.6230
149.0139	-316.8000	-6.6166
149.1144	-316.8000	-6.6195
149.2142	-316.8000	-6.6226
149.3142	-316.8000	-6.6166
149.4138	-316.8000	-6.6173
149.5138	-316.8000	-6.6206
149.6145	-316.8000	-6.6188
149.7142	-316.8000	-6.6236
149.8138	-316.8000	-6.6211
149.9145	-316.8000	-6.6191
150.0144	-316.8000	-6.6155
150.1141	-316.8000	-6.6162
150.2152	-316.8000	-6.6140
150.3152	-316.8000	-6.6122
150.4157	-316.8000	-6.6169
150.5153	-316.8000	-6.6154
150.6157	-316.8000	-6.6154
150.7155	-316.8000	-6.6199
150.8152	-316.8000	-6.6177
150.9150	-316.8000	-6.6150
151.0165	-316.8000	-6.6148
151.1163	-316.8000	-6.6147
151.2160	-316.8000	-6.6154
151.3169	-316.8000	-6.6148
151.4170	-316.8000	-6.6137
151.5169	-316.8000	-6.6150
151.6169	-316.8000	-6.6142
151.7171	-316.8000	-6.6148
151.8169	-316.8000	-6.6133
151.9168	-316.8000	-6.6124
152.0176	-316.8000	-6.6107
152.1173	-316.8000	-6.6135
152.2171	-316.8000	-6.6155
152.3170	-316.8000	-6.6096
152.4187	-316.8000	-6.6140
152.5186	-316.8000	-6.6091
152.6188	-316.8000	-6.6090
152.7187	-316.8000	-6.6111
152.8182	-316.8000	-6.6109
152.9184	-316.8000	-6.6098
153.0190	-316.8000	-6.6097
153.1195	-316.8000	-6.6110
153.2193	-316.8000	-6.6126
153.3192	-316.8000	-6.6101
153.4196	-316.8000	-6.6150
153.5202	-316.8000	-6.6145
153.6200	-316.8000	-6.6121
153.7202	-316.8000	-6.6073
153.8218	-316.8000	-6.6116
153.9224	-316.8000	-6.6091
154.0232	-316.8000	-6.6077
154.1261	-316.8000	-6.6131
154.2263	-316.8000	-6.6102
154.3259	-316.8000	-6.6096
154.4261	-316.8000	-6.6105
154.5259	-316.8000	-6.6070
154.6277	-316.8000	-6.6052
154.7273	-316.8000	-6.6059
154.8273	-316.8000	-6.6047
154.9279	-316.8000	-6.6065
155.0281	-316.8000	-6.6100
155.1282	-316.8000	-6.6026
155.2283	-316.8000	-6.6043
155.3289	-316.8000	-6.6074
155.4292	-316.8000	-6.6079
155.5293	-316.8000	-6.6071
155.6304	-316.8000	-6.6068
155.7299	-316.8000	-6.6079
155.8303	-316.8000	-6.6064
155.9309	-316.8000	-6.6019
156.0311	-316.8000	-6.6051
156.1315	-316.8000	-6.6061
156.2323	-316.8000	-6.6045
156.3318	-316.8000	-6.6111
156.4322	-316.8000	-6.6078
156.5319	-316.8000	-6.6035
156.6335	-316.8000	-6.6042
156.7341	-316.8000	-6.6062
156.8344	-316.8000	-6.6037
156.9338	-316.8000	-6.6017
157.0342	-316.8000	-6.6010
157.1349	-316.8000	-6.6028
157.2355	-316.8000	-6.6018
157.3352	-316.8000	-6.6003
157.4350	-316.8000	-6.6005
157.5361	-316.8000	-6.6014
157.6363	-316.8000	-6.6018
157.7359	-316.8000	-6.6003
157.8365	-316.8000	-6.6007
157.9364	-316.8000	-6.6016
158.0363	-316.8000	-6.6028
158.1371	-316.8000	-6.5982
158.2374	-316.8000	-6.5953
158.3377	-316.8000	-6.5981
158.4375	-316.8000	-6.5995
158.5377	-316.8000	-6.5971
158.6378	-316.8000	-6.5974
158.7376	-316.8000	-6.5981
158.8373	-316.8000	-6.5986
158.9380	-316.8000	-6.6012
159.0387	-316.8000	-6.5975
159.1380	-316.8000	-6.5946
159.2390	-316.8000	-6.5938
159.3399	-316.8000	-6.5967
159.4401	-316.8000	-6.5943
159.5415	-316.8000	-6.5959
159.6416	-316.8000	-6.5942
159.7412	-316.8000	-6.5963
159.8412	-316.8000	-6.5963
159.9421	-316.8000	-6.5972
160.0422	-316.8000	-6.5969
160.1422	-316.8000	-6.5981
160.2433	-316.8000	-6.5978
160.3442	-316.8000	-6.5968
160.4446	-316.8000	-6.5987
160.5440	-316.8000	-6.6002
160.6440	-316.8000	-6.5958
160.7442	-316.8000	-6.5982
160.8445	-316.8000	-6.5929
160.9446	-316.8000	-6.5958
161.0444	-316.8000	-6.5971
161.1446	-316.8000	-6.5938
161.2441	-316.8000	-6.5944
161.3440	-316.8000	-6.5931
161.4443	-316.8000	-6.5963
161.5453	-316.8000	-6.5935
161.6455	-316.8000	-6.5909
161.7453	-316.8000	-6.5949
161.8462	-316.8000	-6.5910
161.9461	-316.8000	-6.5918
162.0465	-316.8000	-6.5902
162.1470	-316.8000	-6.5956
162.2482	-316.8000	-6.5919
162.3486	-316.8000	-6.5922
162.4486	-316.8000	-6.5879
162.5497	-316.8000	-6.5907
162.6493	-316.8000	-6.5933
162.7505	-316.6660	-6.5934
162.8702	-316.2510	-6.5902
162.9703	-315.5660	-6.5889
163.0708	-314.9170	-6.5884
163.1703	-314.2330	-6.5916
163.2707	-313.5840	-6.1631
163.3707	-312.9000	-4.7588
163.4718	-312.2160	-3.6205
163.5721	-311.5670	-2.6994
163.6738	-310.8830	-1.9349
163.7738	-310.2340	-1.2926
163.8743	-309.5500	-0.7639
163.9746	-308.9010	-0.3253
164.0745	-308.2170	0.0318
164.1742	-307.5670	0.3295
164.2744	-306.8840	0.5620
164.3744	-306.2340	0.7602
164.4741	-305.5510	0.9162
164.5741	-304.9010	1.0394
164.6747	-304.2180	1.1424
164.7743	-303.5690	1.2227
164.8746	-302.8850	1.2822
164.9743	-302.2010	1.3259
165.0744	-301.5520	1.3600
165.1741	-300.9020	1.3867
165.2754	-300.2170	1.4029
165.3751	-299.5330	1.4141
165.4756	-298.8840	1.4212
165.5756	-298.2000	1.4225
165.6765	-297.5510	1.4133
165.7766	-296.8670	1.4130
165.8769	-296.2170	1.4067
165.9779	-295.5340	1.4054
166.0773	-294.8510	1.3939
166.1773	-294.2010	1.3822
166.2770	-293.5520	1.3758
166.3769	-292.8650	1.3630
166.4770	-292.2160	1.3503
166.5778	-291.5320	1.3414
166.6773	-290.8830	1.3289
166.7769	-290.1970	1.3176
166.8774	-289.5480	1.3129
166.9777	-288.8620	1.3035
167.0773	-288.2120	1.2882
167.1779	-287.5290	1.2788
167.2770	-286.8790	1.2740
167.3777	-286.1960	1.2654
167.4773	-285.5460	1.2581
167.5769	-284.8630	1.2520
167.6780	-284.1790	1.2374
167.7789	-283.5300	1.2322
167.8792	-282.8460	1.2271
167.9797	-282.1970	1.2211
168.0794	-281.5130	1.2139
168.1794	-280.8640	1.2098
168.2804	-280.1800	1.2047
168.3809	-279.4960	1.2036
168.4810	-278.8470	1.2002
168.5824	-278.1630	1.1905
168.6823	-277.5140	1.1920
168.7823	-276.8310	1.1868
168.8835	-276.1470	1.1846
168.9831	-275.4980	1.1776
169.0840	-274.8140	1.1786
169.1842	-274.1640	1.1726
169.2844	-273.4780	1.1624
169.3846	-272.8290	1.1644
169.4844	-272.1450	1.1634
169.5845	-271.4620	1.1634
169.6841	-270.8120	1.1573
169.7840	-270.1630	1.1542
169.8844	-269.4770	1.1510
169.9847	-268.8280	1.1471
170.0846	-268.1440	1.1510
170.1847	-267.4940	1.1516
170.2846	-266.8440	1.1498
170.3847	-266.7990	1.1472
170.4840	-266.7990	1.1506
170.5844	-266.7990	1.1494
170.6849	-266.7990	1.1505
170.7856	-266.7990	1.1319
170.8851	-266.7990	1.1499
170.9859	-266.7990	1.1487
171.0859	-266.8000	1.1465
171.1867	-266.8000	1.1521
171.2868	-266.8000	1.1522
171.3868	-266.8000	1.1533
171.4867	-266.8000	1.1517
171.5869	-266.8000	1.1552
171.6868	-266.8000	1.1521
171.7875	-266.8000	1.1529
171.8870	-266.8000	1.1548
171.9877	-266.8000	1.1531
172.0881	-266.8000	1.1553
172.1885	-266.8000	1.1579
172.2888	-266.8000	1.1574
172.3896	-266.8000	1.1592
172.4893	-266.8000	1.1583
172.5909	-266.8000	1.1550
172.6907	-266.8000	1.1480
172.7909	-266.8000	1.1525
172.8902	-266.8000	1.1558
172.9903	-266.8000	1.1555
173.0904	-266.8000	1.1557
173.1901	-266.8000	1.1521
173.2907	-266.8000	1.1497
173.3904	-266.8000	1.1485
173.4906	-266.8000	1.1537
173.5914	-266.8000	1.1489
173.6923	-266.8000	1.1489
173.7922	-266.8000	1.1479
173.8920	-266.8000	1.1482
173.9929	-266.8000	1.1496
174.0921	-266.8000	1.1503
174.1920	-266.8000	1.1471
174.2921	-266.8000	1.1458
174.3926	-266.8000	1.1469
174.4922	-266.8000	1.1482
174.5923	-266.8000	1.1502
174.6920	-266.8000	1.1446
174.7936	-266.8000	1.1467
174.8947	-266.8000	1.1484
174.9945	-266.8000	1.1492
175.0959	-266.8000	1.1513
175.1966	-266.8000	1.1479
175.2964	-266.8000	1.1496
175.3964	-266.8000	1.1503
175.4961	-266.8000	1.1485
175.5970	-266.8000	1.1498
175.6977	-266.8000	1.1532
175.7972	-266.8000	1.1489
175.8975	-266.8000	1.1494
175.9985	-266.8000	1.1494
176.0982	-266.8000	1.1495
176.1995	-266.8000	1.1503
176.2999	-266.8000	1.1485
176.3997	-266.8000	1.1507
176.4993	-266.8000	1.1535
176.6000	-266.8000	1.1464
176.7003	-266.8000	1.1481
176.8010	-266.8000	1.1470
176.9025	-266.8000	1.1485
177.0023	-266.8000	1.1519
177.1035	-266.8000	1.1516
177.2048	-266.8000	1.1524
177.3047	-266.8000	1.1532
177.4045	-266.8000	1.1499
177.5045	-266.8000	1.1504
177.6047	-266.8000	1.1512
177.7042	-266.8000	1.1460
177.8042	-266.8000	1.1476
177.9048	-266.8000	1.1476
178.0048	-266.8000	1.1499
178.1045	-266.8000	1.1493
178.2048	-266.8000	1.1479
178.3046	-266.8000	1.1507
178.4046	-266.8000	1.1497
178.5058	-266.8000	1.1476
178.6055	-266.8000	1.1521
178.7053	-266.8000	1.1452
178.8051	-266.8000	1.1498
178.9061	-266.8000	1.1537
179.0063	-266.8000	1.1525
179.1063	-266.8000	1.1468
179.2067	-266.8000	1.1486
179.3066	-266.8000	1.1552
179.4078	-266.8000	1.1542
179.5071	-266.8000	1.1506
179.6081	-266.8000	1.1511
